TP9,AF7,AF8,TP10
-52.2401572785129,-0.01663551047086478,-0.6024339771809587,-63.002791241072174
-48.734660447906,-0.015822590886792106,-4.0148244801133135,-59.92406378381393
-47.12065043490277,-6.370180033328616,26.212629496029955,-117.52969891409698
-53.62562390421639,12.697223405207033,-74.6939186352016,77.54957048585061
65.06523315062594,-71.86143278051027,288.4854818089675,-714.9503243440171
401.7896434309424,-198.33701055481455,476.40010627818356,-1359.1183533452217
652.122310570031,-188.9128052800171,57.48599377534574,-795.1049477936327
522.4588677980646,-162.04361077426452,88.34189854112942,-737.751023350174
92.49031223765117,-151.19117300216564,112.53593494286066,-333.3895775589477
-179.7335807748772,-156.9628899212834,94.58275642629316,-1.4067520174624184
-173.14173397200096,-153.06079925991784,97.48390258100487,-17.159195812220783
-177.32134789331317,-155.49978207357503,96.03568842996854,-7.981043193330004
-184.91474756996345,-150.12861789432677,97.98929671485318,-7.714310216823985
-193.63428021247339,-135.97157842973917,103.33900311064569,-19.518347190876234
-189.7576500650494,-140.36454963316118,99.93173938660325,-13.610065082418915
-184.40219036690644,-145.2468962883463,97.98181100964374,-11.845795589534555
-171.67682969532288,-145.24971185148635,96.4976468900313,-22.509029341809367
-194.7423771255466,-131.0935169145611,111.11890189439978,-37.51150138059536
-234.3836577644999,-107.66405080116851,138.8958046848489,-67.93781632107795
-207.9375942749263,-113.524342187363,128.63561020080664,-71.40839741383066
-61.626974014759824,-114.05223239907728,125.43412635236089,-221.41732864204363
-102.02631021774985,-101.35468135644584,138.14479971229605,-212.9394142226835
-226.25634563272143,-103.7551882971118,128.17154416480966,-58.04361752319549
-131.13566149265438,-101.33798365868111,122.14609791814347,-149.70110432385212
216.81724158353805,-104.8536411245565,121.96404005522191,-519.6724246335586
301.2350634978996,-110.73516465696854,120.83549451975506,-603.5543930469396
51.53259028600028,-118.46752105966748,105.7604391826541,-300.0307747647402
-71.98459091798885,-115.99047984245712,103.56355976561247,-165.07234328299756
130.8022207537394,-102.38871627635507,122.61370572013846,-430.6016783304551
295.9973189798944,-99.99795690916957,129.10210475375692,-622.4139458635079
116.5847013867122,-99.94403237319405,123.12447819742859,-418.1883954180958
-10.62644833039041,-97.95284981692558,118.50281631529027,-274.05502019419305
222.29373566110343,-95.575007839642,113.1838263325133,-514.7886370780982
472.4452751648101,-91.74106620346706,114.64077197311721,-788.6382889447929
366.93184076916424,-107.8104139186094,93.94614975460452,-622.251129982757
146.1559198029783,-108.71605535389679,78.3195282296391,-353.65552286103554
231.16362598718936,-89.22104733651987,94.18411731223405,-490.91287179376735
486.0509278173667,-93.19839731500943,93.69622988242855,-760.1860696248611
416.9500999464427,-94.6424471945821,91.88579223921862,-681.4345410842583
105.23095075761583,-92.11414979920701,93.45860101791644,-352.3562899314099
96.78914108720357,-91.13308088580334,89.09499273723189,-335.2893881722777
363.0333753508813,-92.66961178998179,82.74370111299103,-606.7863655148265
372.92430036756923,-105.3590766117273,71.0650778299679,-584.6397621413066
65.40606229686153,-100.39257434066724,75.54560630614891,-267.6859070512571
-88.34065570481486,-85.71366733544347,94.79765653418684,-152.29035726024767
134.2818295900059,-91.63363850630203,92.42872114036835,-381.7830385526252
286.4776531694336,-96.55558079522643,86.78911912141069,-529.9772239513959
69.9854205992997,-98.4475516810626,87.69703936730446,-298.37147341178775
-146.36068117653244,-93.01933771981561,93.46009150670567,-82.04311059073851
35.20358446779472,-100.8781645155906,86.7945411897602,-257.49414037452243
276.99118922081516,-99.9668676248265,80.48731415068458,-504.67113930878634
137.74087475366224,-89.19033557102593,86.09407992812461,-374.5998224613309
-112.72587452852287,-90.58454184839707,87.06707489676386,-107.07824867816282
-22.465190183105022,-94.02497835229391,82.51837011626351,-192.1691877812422
240.16189562343348,-89.21972443316766,86.86897631345296,-485.90270971435774
215.27730156763093,-85.3087600241576,89.83101404679797,-468.0480771675217
-48.703584741986745,-79.86917549198114,99.57834094435039,-208.65655089144795
-50.75977077617319,-89.14388410542277,99.10814197833922,-198.67663721401783
229.87451843287369,-96.54348307197581,94.19635234242232,-484.1601548695512
300.3761537610284,-76.06904156914977,112.0337671020293,-610.5443720624736
74.52915575171878,-79.4188180368701,105.17748319590373,-352.283338698917
-34.494286932451146,-91.09915757520879,95.18714919748068,-206.813423497454
192.78894623396351,-88.2372006833072,100.58175735779545,-463.3259825887674
354.53152158450314,-80.47567258701956,107.55620735085888,-656.3691846226086
169.40062165235022,-82.37545552428483,106.45739636825256,-454.3496043551924
3.9203802549487525,-97.94048289319508,87.33767803763742,-227.21842233598875
153.9213072050371,-93.10708008973556,98.71737913263482,-414.34515955810576
363.1058793990834,-79.01764699486317,115.32192121143939,-682.1912341488317
259.1490023001203,-83.86403040438121,103.85314731133379,-544.2252614925179
19.92056258130834,-93.55697497319589,98.00422354369813,-268.9664985396984
96.65999148193659,-91.62972235998664,105.15090620209266,-366.95162419890505
345.7798051729904,-85.35815916865225,113.41781879984143,-655.1348511831251
316.5520264781035,-93.64651862215791,108.62024455861348,-608.0904366011513
52.54462905279869,-99.9180017296677,108.16638149536793,-319.6039123726065
0.8197836690836913,-91.1224934044699,120.41764394143206,-295.1919786344568
221.8296409551209,-90.69532670054855,117.5568702113926,-526.6478750522323
258.06279871317025,-85.33471679911209,116.0200863843518,-566.3528016676179
-2.4717754481996272,-81.84730641533842,122.84425051723814,-303.36016529721104
-132.13146959720626,-82.78738322142573,123.09461502937849,-164.2032589536855
64.18780779768004,-76.9837181660067,121.7357713774905,-376.1671557255987
211.89357264064316,-79.46114577639122,111.7229681179545,-512.5889536926476
15.613614434708182,-86.72320671475467,101.89558822711693,-277.1819526622799
-220.88146624421805,-69.57926654296021,119.84492239977294,-72.30542812224165
-89.32582351887021,-63.26889914999314,117.63592158933437,-213.52754928221367
141.73416521747228,-76.99708853877299,105.53074274664651,-426.80406318258287
41.68153252175455,-67.20617902440164,107.6573698628577,-331.0453557256692
-204.61482120509726,-59.81626050982443,112.5027323220837,-82.22410317005698
-134.09309815191685,-69.11143007857864,111.89213045988495,-149.73488618109658
117.25924614861927,-77.47503020345005,99.2540366405934,-387.64549712818024
109.719817235448,-81.8627245338734,91.97673277286066,-361.7523922801862
-96.09646490383874,-78.38456470213204,87.01866969870413,-133.79388363187368
-132.54685258246587,-72.51399089767787,83.18926579680583,-91.38124228767873
131.4180976229872,-81.85700533042568,69.5550403968385,-340.09235476495957
240.5650172591084,-77.00848272443773,74.20255594438875,-469.95666147873055
5.3626479024253815,-61.81662418671589,90.20592468490204,-261.12865220217157
-114.79542077066766,-73.49253812678552,77.80455285304846,-98.89790213765484
95.57702775465488,-78.43062409112271,71.56589182477116,-308.232177807767
281.4373721865354,-69.69875005204986,77.03284010666222,-524.8190190421872
128.90955308973932,-66.72611556273715,76.35097947125895,-362.1681519797206
-74.4995146367186,-71.06219324646156,76.26380608119085,-140.79004399667676
61.630272472187286,-74.5186487715483,77.46455391755671,-286.5489770086165
299.4077912436262,-76.53817145606308,76.52065233783037,-538.0134249268245
227.4013705362663,-76.51658505656411,74.22737177217007,-456.2603928411835
-17.42051792402146,-80.84227431356429,76.65288992531704,-195.53874434101084
-6.677726319406102,-82.80010782279186,80.52683017622783,-213.37103295282807
192.0723991365554,-63.82509504015629,95.68551692323231,-470.73708330419964
184.82197066796726,-57.47945550860251,101.04277196891388,-478.3748946885764
-42.684017898578546,-72.05474051734956,89.82599372332878,-201.3283235439411
-101.71747011339171,-70.5798359177878,94.7778436849232,-149.06524248384034
154.59921111760505,-60.89646622761989,106.42043971912764,-454.23878198662476
317.93701394169807,-69.72139086888255,100.31497901981159,-610.5653902726634
107.3084222466969,-77.4713227724392,95.86150824972552,-370.18657048710645
-137.05215680650278,-73.54677953279645,102.33469254996861,-124.14773650244048
63.96354594663572,-73.6124376682281,99.4427407495749,-333.74882919115225
399.0337003730921,-73.17042356097366,102.05494352119507,-698.4270632033715
352.0377617389028,-86.81110303707106,88.10885068304968,-610.0670574193648
83.20381226143368,-85.81249939907912,88.74837802894625,-323.95509947788736
173.31299522846564,-64.40651746657674,110.18310173622986,-479.2474660803649
552.6402602828822,-77.14438687664591,93.28951409198656,-842.5694441014206
585.5847034641619,-84.43729742316326,90.08638196013287,-866.0873803879606
352.3555975734445,-74.19542241404275,109.53507369056987,-662.6292267927025
377.932141572467,-69.40374204032726,114.76910083800787,-704.0581837214744
689.4566849427068,-75.28210845529043,102.43175066482979,-1008.8935240165822
831.8402228847228,-77.19574289612126,94.89023453604796,-1144.9775437513176
658.1362113153953,-72.82220395875999,107.92977922054108,-988.152497010768
478.71074343846357,-70.92753960832485,116.31768525513992,-814.0496186618038
583.1168410845466,-76.2985040749115,106.06466614679032,-901.4506154104064
751.8562749812106,-86.0062782020609,96.69601332971757,-1056.3784939421319
733.865803424831,-65.50393478036254,114.23660956230195,-1087.345151936302
570.0843418999061,-53.35033545340686,127.54183517425072,-947.4198991639287
580.078573739576,-69.94852837592202,110.47511343544578,-911.7092573593053
770.7239591850216,-80.14115214595863,91.85266452633202,-1071.2189162986388
811.699955780668,-79.1514180148463,96.3375793936868,-1124.8503176235772
614.8124993665411,-72.8668937860526,114.45905551698742,-954.7672036655091
527.1533266680141,-63.61788481356533,117.68259127180974,-874.0897305587995
697.4128715905694,-64.05143656079812,103.40970714055722,-1027.6554155972244
810.7254983218056,-70.85095000174717,103.65964871481604,-1144.591310714126
688.6401259040001,-69.91363153784873,111.20285648272915,-1029.5463034201348
543.0199092841021,-75.8198157904641,101.11602680116954,-848.9143602947848
585.8352008104602,-81.17714667261937,96.81593622980486,-882.2401956823228
675.4976466506729,-69.42957490477103,111.66214844840135,-1016.7373784808136
598.0527001336328,-72.87243813817071,108.07335397130234,-924.0072234639013
479.30352505203473,-76.32857851202408,109.76454562267182,-797.5765070848296
566.5255421300666,-74.83569746386728,115.81631231711397,-904.2829518134736
769.517090035009,-81.11810259101343,112.35781495076303,-1110.2858163896087
779.513299265738,-84.5327011279012,108.96297257362764,-1111.6821423069182
612.2723584818228,-85.56365063507738,111.51945690662674,-936.7998105340905
568.8238681170485,-88.99119100324272,118.7779952965904,-902.2491138348225
750.7644355429352,-88.45462760588563,116.66790071897024,-1093.416121653753
766.1185711626769,-89.392037979431,107.65921851786467,-1091.1334322551372
447.475040720339,-92.81339416287452,100.80003647923739,-733.3570114902212
371.6783952147375,-79.17906817362038,114.21425049629882,-689.0409615833847
635.4949270425261,-70.86411431380031,121.63572157078112,-992.7876590525542
642.2865515828192,-83.97049957207628,100.19286931491214,-947.4503237879128
263.832706071999,-82.95769158827179,103.85955425739334,-549.925808765572
42.20608194947565,-69.32284133138408,119.23049079436538,-353.2336027066526
241.34053278497578,-71.26955820113751,112.92680707800439,-552.5972415687133
344.26668699966706,-84.8658125600509,103.68009025496549,-634.367239260069
59.70198224108518,-82.87137473282485,105.42842226363305,-334.35066056231494
-200.38359738304408,-68.25521622144021,119.85536162640673,-95.27104634759255
-33.54081846700743,-73.15675460533531,112.40264602509248,-255.54606733612096
189.35430923014607,-83.85256306844795,91.72480482009358,-445.1315625432762
5.743857243234188,-79.40545666578703,98.43323130727644,-265.05942909184716
-303.3824405379895,-73.56398896813094,114.42363280539834,29.914158146081046
-224.72889485112998,-76.04713277884602,115.11379252924824,-53.93755378893928
61.63287621086122,-93.60289631785857,95.24770542873499,-308.11635971440813
-8.691122509833686,-89.64187209769358,95.13528439787449,-235.43847016117792
-274.8793223996028,-74.00575224868543,112.789713704397,2.9642098874120673
-306.20000347786873,-81.38587033280383,116.80066421316121,33.93539186096466
-37.333377070801994,-84.81205752019355,114.79114436775816,-247.67814377182657
-4.414240970465531,-80.8616369956062,106.30517962069548,-268.870008608274
-231.41804557053732,-76.43208928302522,107.03374353030304,-30.296975831702
-354.8388022131604,-75.0114705716643,111.12480295242004,92.73921206233575
-112.48425613940603,-79.91824376254263,105.1010099014258,-151.3261610144871
-9.514525207214332,-80.85762602505596,101.449890365489,-253.67947143212749
-201.61553646252554,-82.77471733801615,109.02137196042577,-61.546926873715165
-369.0104600933776,-75.48076374839206,111.74338019494427,107.03455279772409
-252.36558163247014,-72.58028767711728,109.10152537682299,-14.82681898701248
-33.27953198084351,-71.10403501660434,118.9454382208603,-270.44657904996126
-145.30415329652465,-71.06564753558757,120.67369652945567,-153.8722909812438
-337.42808439826354,-78.40029917310733,119.62554364665114,59.545471976192474
-287.78137649838186,-74.54605264960328,123.17494624630645,-3.6154887429854607
-18.435800391352657,-66.73894886454704,125.09104246661474,-301.8843201854685
-44.8065168113627,-71.09706727582993,126.31746954704093,-272.8666157308879
-249.0725155322161,-78.8943953257298,129.83954808577408,-55.25043947521564
-276.63350938505613,-81.3904923678396,129.46426034921885,-23.120178856033814
-0.7289839149711651,-81.40790633524293,125.92679710738345,-311.7274289720534
56.29227398186686,-77.95889474599343,123.69840654848555,-370.91833397017416
-120.24819684430899,-88.17914238102837,111.7223404196427,-150.18311833950497
-236.5400033259621,-75.04046426538665,122.15631722998181,-56.12957468212257
-6.185682594903461,-60.42565229941786,132.66776660990323,-334.84497338701476
160.79268258110844,-78.96009681788267,114.74026752193912,-464.2344847869432
8.345112755643983,-77.45667507249782,121.35264563846007,-315.20039045208836
-185.0506544039765,-72.10584044535254,140.25659646483084,-149.73919772016475
-33.879835868887476,-72.15063625010961,134.0898330448441,-299.3724547354438
204.47573975295012,-79.46792500998264,120.95379282641277,-523.1268687018462
79.19169201126103,-89.68079988992021,121.7236309784882,-382.86764412227126
-143.62147919572274,-89.18362254535838,132.03858215147238,-165.09390322964478
-83.15605106512619,-87.76950201635628,131.20223860314465,-229.26559483776606
176.81411554630512,-87.78010932804449,124.78179507322378,-495.02404433203037
142.83653142196553,-93.60269147578175,118.68661105327239,-442.1061971228062
-83.48359120253176,-80.88548407169196,138.85638494341282,-249.32150062477692
-126.2165480817164,-68.72452232005749,148.79416269903822,-232.39183150269966
158.099876359997,-87.78832236811981,128.1434060141447,-481.69526400083464
229.74295731831148,-100.46154712050406,118.04106569487168,-528.902877639861
23.80496589380572,-89.19807993493568,141.21671942078973,-362.9140183620847
-92.97491468429115,-82.8794866178729,145.9001023294652,-251.79112488259977
118.57853643749439,-95.11912383906072,135.91073544068996,-449.4967495153292
250.72414682671229,-104.87272058016968,139.8995232478743,-591.9310403881454
88.21559613643637,-107.26732506681789,139.2441140381727,-414.68119095647637
-108.11039015385064,-97.99846885202528,141.62727889590096,-215.86855405870185
19.946303942566995,-100.49257175432727,126.12895617924521,-320.2289616912336
230.12736760550501,-98.05156561566704,138.33324186873534,-571.7442822614204
91.8231738248081,-80.43094409472413,163.52719637332316,-486.9713252924775
-122.99362490804523,-91.6399011023764,160.74512226094458,-242.90338204751114
-94.15332140892907,-95.59668099268319,162.3515115961264,-274.1163200278376
163.78313845809615,-89.75233399702503,161.7601083119263,-553.6873381065445
151.51836225018673,-93.62752511645455,160.99667157843243,-536.1573344059698
-45.68442220095904,-95.55049421465911,163.1567261124913,-327.7111970856879
-111.95998389764365,-91.68438314104442,177.04144940111345,-287.3444230556402
127.19833879959855,-85.36736544399196,179.7608954190752,-553.7708233731923
219.3083846908166,-90.7226628479446,170.5919460573309,-630.1766240349398
60.0932859625679,-95.56452101108039,167.45500560827466,-449.6817994732846
-71.44161810800036,-97.5395231939133,167.30488457124372,-306.950162440029
104.80676353977064,-82.44644522738307,178.2358906472166,-528.8692245140879
276.779976304049,-78.04858631474605,175.32903753909315,-710.6024808513803
152.15785299936033,-89.23608439615141,164.88171439071493,-547.8619344936992
-40.0919745869127,-85.82482204004731,171.18335142452608,-356.95211256652715
49.432860887857096,-78.56066329447673,180.04856395004938,-476.0157615259809
310.67499292876295,-85.8858200360243,170.27650246026363,-731.0330111825932
261.7058834410326,-84.38021284219951,155.41950210484248,-649.8939582590343
17.04123890344273,-73.14897079627964,165.1904334546732,-415.51998291505254
-17.5293718441686,-79.56220368504991,170.11154088365623,-383.60149009730367
283.6890474427752,-92.25878826910608,154.47781185400174,-665.7629369376349
364.7196416112351,-102.45980782881327,131.89150110968652,-699.8429646973863
115.19866246511333,-94.63114425715123,140.30319664689438,-455.03377241079306
-61.553502386169455,-72.727390218375,179.86945277682204,-361.0030134638713
185.23935529912984,-83.00932396245955,177.7240033578378,-613.6344382895408
396.0347112836573,-91.74820598453113,159.02537260797516,-795.6588738774495
155.49710808005582,-82.45636272588708,171.33189935932512,-569.3589309253437
-119.7069598326009,-71.77893840793308,185.53593247122677,-310.7268638677915
45.05489999941306,-80.61376443716395,174.47971603437495,-458.65403898268266
332.2943981227046,-95.22088047613751,159.13826353810538,-725.0110119480141
256.73013817543716,-90.27713038574659,164.92751049976525,-659.2643529714637
16.189809426698545,-90.28805875166566,175.10642639852327,-421.844182968035
118.33432317791035,-109.37384657266942,163.0938523082423,-493.19027926711726
409.81844412479285,-125.4739498130421,150.00068594491123,-767.5006485786156
382.8115170112717,-114.68346831055362,158.14457896709868,-762.8219768339414
74.95242127244983,-96.14282772481484,174.64975166444074,-479.5953329553797
7.995759343114043,-98.1581275816496,175.19967084127714,-407.44970086595276
307.9790548016875,-105.48354457281441,163.9609797708969,-701.0502364190609
431.08153434172306,-99.0799938350113,167.27421475675933,-844.3444600869667
185.91893400146782,-95.1558653598759,172.27970919658486,-594.5053480911379
10.37249826989363,-97.64993360767266,176.31287427884035,-412.6016980442684
225.86278686670335,-94.25985229317807,172.21526094059982,-637.8472176515534
444.69063986982013,-96.16241218419998,161.82005077563215,-850.1532416052145
261.16166062138626,-98.0740797737486,163.0810936631258,-654.5695592353425
8.821122852921075,-97.13342795256675,164.29951864952895,-387.2518662448828
137.72497954825133,-85.95098874672622,173.2472840880793,-551.5735001609852
394.9033608566511,-73.2312378680449,182.20404252859507,-854.5271302669248
306.01019266648495,-79.52177020136486,173.3186825946456,-736.8175465546585
4.349761079674691,-85.88461995622504,175.6558311473374,-413.49973101620753
14.297576586229816,-72.7626516562872,186.95170784863683,-456.46085963931637
306.43594990708556,-68.35551687278132,186.54991193519086,-772.0094120604466
320.63143470348314,-87.3344359000586,171.36442057166005,-742.816182226443
40.83127808751148,-87.32298287691088,169.48988611621067,-439.186845584953
-60.920277389499205,-77.12548488252379,177.89187566013612,-354.4790126405881
202.2504583037543,-77.62711159205763,175.847174233675,-632.0723487765526
341.97596364241133,-84.893859387126,160.6165394231692,-745.9586016511107
87.58777327080197,-89.74998719617896,158.35824328878215,-465.20957931187127
-120.38404769166775,-84.9145640745053,172.1932140396737,-273.59112193860597
87.41560624992272,-84.45130586465265,168.11525615729798,-488.47674936040687
314.1997776141271,-87.33697421040553,154.25715895828634,-701.6481411010893
141.32527927771397,-91.68615232350353,150.66212178657113,-505.95881695410293
-149.22528305309456,-84.8803579889169,169.49824839945433,-237.30593719656724
-32.99993156491831,-81.02432952534154,171.10675365627534,-367.9370002854704
265.1701791349216,-96.62348621681888,154.68252771305995,-643.1088762169239
188.2297934936685,-94.61347598452525,159.46740492894088,-571.7134055401623
-134.69012393053018,-77.05125698323197,176.93638310509692,-273.5549178607791
-145.79825891604258,-77.11054732238568,178.48265831700255,-264.7036541233059
163.61195442967997,-93.69913387307365,160.0170116675573,-547.1034945577178
209.77822320844984,-101.45159028922541,154.56965521414975,-579.9575031491278
-78.47848570291227,-89.23708000780161,164.3866012622894,-299.6794369754974
-194.86284710182272,-82.94441437765839,169.3803498603598,-189.58313566579292
83.55276344960119,-104.43990267575587,144.89002800612886,-423.07819329604473
242.85299947358558,-103.40915133645804,138.42593384688377,-581.6211920707012
-4.5768425632594205,-92.15839377485698,165.90890549443043,-379.7824461797766
-206.7674936627339,-102.94783883524755,160.21353077884314,-143.71944919200533
-10.466634953018445,-102.00611694866001,147.7674235446902,-329.86868518911945
244.18973593682554,-101.48196538500842,149.4784090728675,-606.616594795553
109.59263451966316,-106.31920624717684,148.32627750261784,-456.48647235436744
-165.8948308249989,-106.34686176963291,150.57791179969098,-165.71696115404822
-85.02531467598578,-101.52171193094739,161.9009811226764,-278.6309665002087
210.14967490859345,-98.09000657799557,159.55383532184683,-592.8179922809869
197.316057712553,-99.49776251758489,145.29713387699312,-549.4639019379766
-111.11563067878505,-104.39402120641242,154.48220999700058,-233.68872481436628
-165.43861875130577,-103.48043816073672,171.13988928290945,-209.5121773523831
118.65119517060829,-90.7848406368115,177.97778261458865,-537.0460025260014
212.7029670678982,-93.1699593555691,176.89918341108978,-633.9297985103605
-63.197713559258894,-100.00025341078934,173.5199399297514,-326.42386530191243
-209.35937837770578,-91.26994596910588,176.53473198407445,-182.24457943725363
47.197631691069056,-85.43420414670487,179.79053007633507,-468.03832874842976
255.93453585200206,-92.21873937157505,169.4010645381698,-665.943328748279
63.30659895677588,-98.53461218975114,159.8535371690325,-435.7083328074852
-167.4980515671514,-95.16179801013817,163.44993690243453,-198.02844896733646
-17.323063966141486,-97.16176544683165,167.0347545120216,-364.69015090038107
254.26977991540866,-101.52283003553256,155.54565244880385,-629.5451925126871
157.69653956295764,-119.04410246381795,134.9396805480775,-471.84763427396064
-146.61031047999464,-113.21285732533879,152.81305993464184,-185.8042498909957
-113.04626492081599,-88.37710419005126,183.60611571958842,-301.7689034193374
213.53519215527018,-103.00673217404108,156.87971770374403,-587.4662094331113
230.8396389711381,-110.75669439177983,141.68385141800593,-569.8584469502041
-84.01537995205302,-103.44327789064629,164.07066398087443,-282.6442342365165
-139.10732939394822,-101.55180995786483,169.0186674755235,-234.9047923481439
165.9446923281472,-107.90060468751764,148.50304273811523,-516.0719650294658
280.49753407271277,-110.77416378046456,144.00538287582282,-627.7185599117066
0.016382912597941914,-103.44153613335065,162.61777215418542,-369.79776871276715
-171.6110567232694,-105.44402294155618,161.7907706085178,-182.71970347024393
63.90416117919159,-111.3276736359183,146.9757535063761,-401.12260387402074
285.77400639889424,-119.58303325062833,129.22103011999945,-597.2637031456171
72.13159963264063,-104.4120256672741,148.01100729422458,-417.1104446552267
-200.69051855266403,-85.41029569439257,174.58349591674659,-191.94423353702243
-42.11891276723506,-96.19238872620171,152.82528950690687,-310.36150529068874
248.18012641400955,-106.4124656995402,135.47930070713085,-579.214326619746
145.07235018429785,-93.66820853883783,147.53390854028447,-502.24723259546795
-157.51744865676827,-85.38982563480862,154.21614878636495,-197.42686922168468
-116.22208241931465,-93.26266407318937,145.01304445055214,-217.4473601470163
204.30358853402797,-92.27504607528618,130.44046968035607,-532.511049893423
223.45178178550677,-91.23535312536748,125.99085777489377,-544.8852709561169
-91.9517917441579,-93.18909755821939,137.21707598208792,-227.89527881961104
-164.0331938144063,-102.03319267018257,131.468348930692,-132.60644949924398
111.39557434675578,-103.99525194564868,123.59454201067699,-410.58338466651236
234.82105413465348,-89.29301352515499,136.17075470599474,-578.8963091143847
-16.338733253944188,-94.6409365688186,135.3531893899797,-304.131396569593
-217.97939200619118,-94.69005777369824,142.82862011222736,-102.95851329343202
-25.22922847291027,-86.90914495929606,151.40093162124975,-332.4502762545952
198.42455731065002,-93.69955825113732,144.38909958900038,-553.1052504613008
35.152827920387914,-104.39079451980595,128.6254452422396,-338.65596484545205
-255.6668086319025,-102.95304129284119,137.228612810391,-45.258379893771256
-182.27047031425397,-98.6102562290184,159.3344684339607,-171.40976231139982
92.74323567732186,-99.07103424531559,151.71069538279627,-450.548997423301
10.31892559369553,-104.86351504821143,141.9158165275631,-338.31741481768364
-319.9693415731103,-108.7787791343721,150.15474319726061,2.05573093156985
-338.439568839534,-97.12184295636538,169.26182729201813,-25.017246269173345
-52.982393017680856,-87.83828116007625,170.76933922120566,-340.82343632581114
0.4176156667717524,-92.6568413273512,155.58523816573683,-364.08552856808274
-290.0227891890098,-95.58320478867131,163.42054769005097,-66.34032222728246
-421.56754931968385,-97.5943101992285,180.1125303705154,42.68680873172625
-169.1668425590404,-96.14439042612604,175.615590921727,-219.88866919497357
-2.6802418907290386,-97.56058313700203,173.0197464261812,-392.0804676850328
-245.63056943799637,-95.09650640604445,184.40577981799694,-156.3194073293246
-463.68328788883804,-84.40243745504182,192.86465325612903,52.557031677209295
-266.45940540965495,-86.8813697936134,186.25949331494965,-143.7627627244853
6.366006559157198,-103.93279892976577,164.55043780879296,-380.11305966666384
-125.08521341696638,-107.78979779098339,159.51730494184795,-226.30166362744444
-414.6881659029728,-91.22388125047306,182.22192142996522,26.393586911207816
-308.9101667349273,-98.12093248750627,176.43146575158823,-70.29362045162085
9.38838886185631,-107.37946097408874,154.09963842440277,-359.8754096127291
-25.186504980863706,-86.81103323811483,154.02729839287602,-337.8300552645722
-334.47225250125575,-73.1444032959549,166.198338101906,-40.79985488234531
-356.59204077194977,-84.43864379406234,169.17870567481248,-14.741107369922009
-42.93362363003686,-91.28127197890699,159.36716925399597,-326.21319763148716
48.747913649986806,-88.78308444938061,156.82711439689834,-421.2270467863218
-232.594934497766,-82.42761020615855,170.5526363979295,-151.87227972523706
-349.1306704867371,-83.95063237060712,167.223729127425,-19.180975958892525
-75.24449130961136,-91.29385562103629,144.6323829118939,-262.05415539907
120.21487790092131,-101.00685288882507,137.6692951994903,-450.43523394056285
-92.53180883520838,-101.46589390905608,145.1941601501219,-237.15619173201748
-323.74112235858325,-95.65305921159127,147.80448850165737,1.1349568442062188
-153.8872894096883,-99.60296506852086,143.1103911436809,-168.5950983990919
108.10648379519371,-90.7827367204609,144.30081342016342,-458.2771698682805
11.997881605834511,-87.80185469285571,135.86304732030314,-340.5627111090979
-269.6731755162411,-98.07724241275935,134.73907916192772,-28.85194262371674
-224.0140781149646,-95.69555667462835,145.07146503242782,-100.24313056817445
76.17200773271576,-90.8028902546962,145.62736379471605,-426.69343067809615
91.83701034467295,-103.92321756340942,134.8310288108306,-412.185431306407
-198.03247298385634,-109.78771762636799,135.77242317368672,-99.0757806394799
-260.8139512664073,-105.94904952247602,149.46883304437702,-62.05638065471278
25.876617749412986,-102.54424280938976,154.74960901232896,-382.4120812275414
146.13230590267017,-99.56271505113284,154.1287739105467,-512.2520808348451
-97.92640236093446,-114.6821422233471,142.52867856589785,-216.29585046119044
-261.23186870842295,-113.7576029846939,146.5662266520798,-50.039553802340606
-46.91864926741116,-86.45185010651285,169.74299073488183,-346.28779882346123
176.0695115791151,-90.32079465762335,167.0692928984948,-577.0731527003762
0.23384261014221747,-100.53610703245735,159.03334248193497,-364.9906364580706
-250.36867273664467,-100.56769206560422,157.35176251105685,-93.00940380540601
-117.49156036280324,-96.22085490739573,163.86042357081882,-251.666065414254
171.66277246821977,-102.53897376322614,151.36779641096516,-531.8904943974496
89.63845423377376,-106.8771553008225,142.96540514405027,-423.9489512000156
-215.20836117417556,-102.98963436924126,152.11423019056255,-118.41572026704586
-183.57364590062875,-100.11695547159114,152.69960016043575,-155.61045509986806
127.41266877637204,-102.54613479271185,134.71709498934,-451.10092735641683
162.5704771048782,-105.90398859485369,125.85225948514373,-468.5479440476445
-146.33268516182036,-85.40428035045538,153.1403981541701,-207.2485762681465
-219.38828851109287,-81.55949743141113,158.5779865828908,-142.6763281789883
83.62043280302446,-101.58914268421154,138.0007718842381,-411.4493074458835
233.16607597954416,-105.93623069021817,136.86148325908195,-566.2426684700202
-7.121273055413857,-97.131489540537,150.15266376590327,-341.824683120745
-188.66712214831895,-93.76293171092223,156.16126271288866,-161.76855534557245
43.08305962186457,-99.65438485146728,143.2458302933621,-379.93609232933227
295.328068873843,-107.42331399780538,125.47840685966008,-608.9654654775564
133.1236225440595,-111.28988449277497,124.28584352572342,-429.8807755194916
-130.76303915966648,-102.04886680172008,132.82563692733285,-170.9721672714171
1.5441038693927915,-106.00346497906638,120.7751221577453,-285.71929384732545
302.00791908222493,-114.76531903787118,107.28995124297495,-574.2757623222975
239.42381281190941,-100.06291544112308,120.35557862630401,-544.2092172053641
-67.84061782352025,-91.78258213656314,137.7933900037477,-255.92798604000458
-71.11654744951052,-89.89172332030834,143.71377624612452,-265.67120029065586
226.25298558494373,-90.86279032336992,138.3803925479945,-572.9833946369782
282.1789127357421,-93.7308665896741,133.4320745441139,-620.8964194080793
-5.090947227080469,-97.14245169916086,134.94072277941697,-313.51686944546555
-118.4916568058973,-93.77961317910311,134.0741383743035,-192.7188372976442
141.97973537582453,-91.84070133582392,131.53520156734342,-468.22726346661364
304.1538062946706,-96.67310991293799,125.53341659482263,-626.4562390042313
63.90987123481471,-99.57753044433223,129.61304831214414,-375.0022629496722
-159.4254713607538,-100.59433521597155,131.77831244653802,-139.2261016985394
18.778567115248595,-92.81574386519954,140.8229753424581,-354.0723214032488
274.61107676375195,-88.87371635504176,140.09191780387357,-629.7068570361532
139.20404673714506,-93.70917712857924,127.2332511862221,-455.25697382710473
-141.73828044377737,-102.52137033144113,130.49249725572864,-154.18678957338696
-69.29618115673702,-95.25407016555222,144.75035992996834,-265.7476343290237
218.66778300602414,-90.35513032518183,142.9079005983703,-574.2983151518822
193.0467269960056,-99.08195505478619,132.10450688383742,-518.7642717812354
-126.29919494951695,-94.69998355670234,149.1081657261689,-213.79209515480326
-165.9388772589865,-86.46311229339422,160.38836595711973,-199.97564134062122
134.59356394221763,-91.3428656367469,143.80779536324593,-485.2648587484351
223.21236545451876,-105.43906336334807,126.18027194075333,-534.5420233027214
-75.77264665328788,-98.59454367138618,145.28213161684545,-257.4102341676822
-243.67170504252314,-78.14807887037456,179.04085174358073,-160.15929455126184
6.03028093803708,-87.44764932228475,173.51723855970224,-409.86465393125314
201.73221637267213,-99.60793922543006,164.07235227252653,-591.7303354619509
-25.197796707611456,-88.83636198684906,174.52793065131672,-377.3967851667296
-249.20157538448487,-77.15885390948921,189.8699289392966,-176.65654941680776
-59.441657964163845,-85.00970970306311,175.93485681965674,-346.3334855547193
184.67468036812113,-90.34941990384834,164.91974170955717,-581.9684126746122
58.48951202724636,-84.93366052722466,180.36295559833235,-481.6562974367879
-229.46871420322506,-86.41761195198094,187.06777640147192,-185.36944231344862
-166.9929684503637,-90.3819437572384,184.22781331239088,-243.71850565396142
135.66256931209298,-100.62567315853677,171.60233425906756,-535.2543884205344
127.89394700382415,-91.7767960207867,182.7549692795392,-555.7918787420265
-180.54234552611504,-82.50473818701623,207.13275986865847,-280.88907543281357
-232.56041888936198,-96.23288737464104,200.8872318859442,-202.50943136959822
66.63812065305613,-100.14090178718362,185.73840575252726,-489.9534166648534
180.83676580026082,-96.17628288402875,183.6975264048663,-611.1811051026052
-92.52443391949511,-89.81149381841927,191.13931038555438,-337.79880259387613
-266.2861815334507,-92.79232789202335,198.11256179535008,-163.33946019450516
-33.465798714732784,-92.81621418010555,189.15959179569145,-394.9160202364474
172.9785291334203,-87.39916380128453,180.19760203024026,-602.2145604801086
-15.28921437553796,-88.8272125403041,176.54383907339076,-392.06197517327536
-250.39167595165537,-95.69571697778542,166.06645878356764,-114.03383200858255
-119.55006028642187,-88.90750004775562,171.1100944002993,-269.3728042767941
142.2748806027601,-69.35612544505527,190.29115799780735,-602.8239268429631
75.26036322925827,-75.64653103940496,179.94182399556198,-505.6304450644577
-210.8598157981482,-89.33064460728713,173.02190554992197,-175.02780258947732
-198.3293777379615,-85.48456205269878,181.39809956636597,-208.07257586318144
94.81228764641664,-79.13292629997022,180.44884437924264,-525.0324651080348
125.36814652285835,-88.35132047363538,174.01741835585798,-538.1039693932374
-164.33759429793696,-94.69274826377928,172.10703299285066,-219.10509569722674
-247.97138224914562,-90.35460875943917,172.69663582792913,-133.84645422876935
27.4846563233767,-87.9262088951935,166.74801112277396,-418.9446966265394
177.4653103464922,-94.21921901293372,152.9628361538296,-547.4355013896778
-66.87691315813935,-102.01012378055516,150.18133494931155,-274.242767005227
-270.68114133055997,-91.31712513226472,166.93364522960468,-97.25186024945076
-56.549541178694795,-85.97545426221929,161.36065193499923,-319.5234251205094
188.20623659625275,-97.16523042353302,144.5500403722381,-539.9222493751952
14.674888858764584,-97.61606056146528,151.15468582530477,-366.8356282812515
-268.80212922905696,-84.95646529288689,174.34709449604892,-118.80483342076485
-143.99385806363193,-86.95736678491554,171.08956512610527,-244.57044010087833
156.07409361341465,-96.69920668544972,157.09262202036444,-530.9552313677193
95.22843972051034,-101.03874214721297,156.4934401376721,-461.34445874460727
-205.49064708550478,-96.65533484642708,164.22960769557216,-157.77047978703354
-197.33228430419504,-90.85423659205709,162.36486942736187,-167.0531430168231
112.1034398976223,-99.6365932135651,139.9499476068536,-447.3203856560087
177.51099427350564,-108.84990571175194,124.27604824610317,-479.232265973382
-126.05718894049727,-97.13032503984293,149.67237330946892,-213.39099357246675
-251.0720039261669,-86.44527457019045,158.06936200754717,-104.09946073571527
34.734569868940405,-109.40213211426688,124.32553841948413,-325.90055632578117
199.40275425672945,-106.91077586911945,119.29720109879662,-494.14944969157926
-52.53328368726794,-77.59443273574433,149.21594750954313,-305.67272140295347
-258.47596022588124,-78.12474239728044,150.39239266760583,-86.91501980945057
-57.34959946813068,-85.4816227880664,133.5667062745355,-263.34710397457076
196.81715759173053,-83.98326350447707,125.98418957254563,-521.6693978900753
61.12551194657091,-79.54979072635705,128.20453099751208,-383.9538277045533
-228.6457853761961,-83.96903507523524,141.21854367941097,-96.20078715806767
-131.57309740822404,-90.34936896335034,131.22868501280828,-175.5254884138775
178.4984354223176,-95.2061224785499,112.85281403832246,-467.45866995595173
129.81839225846164,-88.8097620260561,122.46436559935448,-439.2538131202191
-186.19643087060354,-81.00718143682526,135.5798924395162,-132.58279300248626
-218.16680086991806,-93.26718172620404,136.68126310512454,-91.49042284193048
71.5446447998015,-87.89493763356657,140.10712549622994,-412.81738460440596
170.8719713240631,-84.41725901396381,129.28638534859212,-500.15790780344577
-93.21095816785146,-96.120288511565,121.5817592983956,-193.0618846143993
-249.4814246169147,-86.90165317636634,137.29218392011137,-63.84266697526273
-4.622599897528614,-76.67561132658402,139.05410364981356,-337.34079000249113
193.6399479116097,-81.02242117053716,123.75656752023268,-515.9830263051962
-24.064120415801252,-85.38491093876581,126.41784213757484,-284.7707314113648
-267.8503385408126,-88.84216191747599,142.74985032814197,-53.65943146927522
-95.22225799728095,-89.85897719100115,137.1025423986877,-226.6144497060654
176.33237019115157,-90.80632314711445,128.02568231700226,-498.77667429003355
68.57034262931265,-100.5252843677069,121.5099512626836,-363.0650291713633
-229.4765024731364,-97.1310788646664,131.60079432013117,-66.34357081025344
-183.6100974320992,-85.47057012699103,145.84958078805164,-152.6402874894443
132.2898645004442,-97.66473670923502,125.9183267755436,-442.29751619049085
134.7106664826659,-102.48948182363439,118.50428466706545,-426.48353240576097
-174.79579296824645,-90.28902223301391,134.0841899979483,-134.9657813022481
-232.051083029285,-87.90541670400195,137.10553070666273,-81.41046526709438
60.728597274281285,-97.67486944271303,121.45426479714514,-356.6492456646621
173.63202018341232,-100.0620900982234,118.40811712205455,-469.79437708028007
-99.80512257878472,-85.40093898416845,132.65551408037228,-216.0783709950797
-268.86924728097756,-82.52292845684175,136.20715714639957,-44.11606226064531
-30.90892748013565,-94.26705166071062,124.31429644363311,-266.6755025228574
188.27444231959439,-100.56967896585037,107.53344091896624,-463.3272550435864
-22.085861208169053,-80.51888473495312,124.34952972012765,-286.3328666921561
-286.05439969246993,-63.46711988756918,138.24838887381563,-43.82833581230579
-144.28211125305236,-73.76272176176218,127.22008636571283,-166.09544251950288
126.44678694222237,-78.13112711875559,123.00483076475159,-444.59163239208254
34.53394568902205,-69.77560522941634,125.33358555255887,-356.90420297872066
-262.87644903053103,-68.81145745958341,125.24839578286252,-38.687480632317
-232.83609691195082,-73.74943671425429,118.52218574538085,-53.76996416253223
66.4903828292302,-74.72144422952094,117.08859826073522,-370.99176701873836
97.35562933834258,-81.01067927843127,112.60667153104484,-390.45889024691564
-188.71846129897713,-83.93312789053239,111.19150096641931,-78.86374447704902
-274.12260493335896,-84.96492468799117,108.8593587009185,18.102658255173164
-12.048071030583056,-82.04752240781063,105.84537013009357,-258.8932566907616
108.34850971469352,-73.69689604813082,122.30068808624564,-427.0510960051292
-136.95746080542807,-75.62685212844185,122.45967301027174,-163.03513743581556
-325.7086482504941,-71.2766709680455,119.7139368337649,41.55870153686697
-124.3800435026951,-72.28347574630148,122.92438333519011,-179.9098772958697
105.1808154424249,-79.07889632266509,118.80787886039487,-412.6927385272306
-62.321346762204016,-81.479029912696,119.57937274169696,-232.94547066280228
-329.19166944168603,-78.0892428186924,125.24536546502343,39.22988023509932
-227.86844815119574,-71.30439318789965,131.7307384538764,-87.35798055007801
57.96651826348681,-75.1886080237225,121.13975605750832,-369.6280219220944
12.876835451849297,-82.94089056140385,108.8576552566421,-290.98366600508405
-289.1118607433595,-86.37054833014547,113.17197656239243,26.5635361898152
-312.8491042579109,-77.1535723356627,130.33585855264585,10.826545270048731
-33.960820479646635,-65.92119448813727,134.74349001314846,-305.1854178814323
20.865770101020257,-76.60071152239408,123.45478420030165,-333.4618689967286
-270.56436239129556,-82.44782017912489,126.95692449040403,-23.822600463791495
-397.70626450103276,-74.20156361389115,137.32496408098558,85.59690598497893
-144.5892955673232,-74.21923952894326,142.0864846066779,-195.21334214294401
61.412894572613176,-87.83117391393084,108.80639033202068,-339.2971629243357
-140.0073422976158,-86.82408467702926,103.64477078333069,-113.82158136905097
-371.9025416928267,-68.81040356351357,140.39234635846512,47.823415607236896
-169.71875832754526,-71.78135933494957,131.80838259123868,-149.48535679733
110.1672303861595,-87.37367991226039,102.24747225357329,-378.7476469180929
-27.142932624518174,-84.40431549823522,109.84395364018128,-248.98917598753343
-312.80025197864234,-69.30009091250582,134.03504146949288,-2.423703930843425
-200.51146320680726,-76.19191013697551,124.37423781551257,-98.33895486355482
106.02490350214129,-81.54844041995321,105.91948469869413,-385.95694196936387
50.62356069447523,-74.1684175622855,115.57975574685898,-351.3708013062678
-235.76311825736218,-64.90449674336213,133.55405396134947,-87.2653538295601
-237.70934725418502,-64.47946685920694,134.0965861427856,-86.57954002520039
58.40287228102168,-71.80032079711825,118.49467545387411,-367.29319595396277
139.77937351304573,-70.76275562006302,110.61249403965468,-439.4836314370556
-139.4097174792779,-71.2423696002363,120.92587501931021,-160.5647876426546
-297.7285252446835,-69.83234095257033,132.7567655170848,-15.62407057803709
-72.54788642792298,-76.20037490949983,128.22240262057286,-243.19011005687875
98.34726423596226,-79.07607033354776,118.33898952297214,-404.4314252711657
-123.5533840087785,-79.0347047707677,118.62283965254959,-167.20340524161452
-360.0050022283367,-82.48630196838299,117.90380028948225,90.20297408996527
-210.60456597855318,-81.05897526905005,112.27526486632448,-59.695872782735094
35.17556655113592,-69.80082598044642,119.30114597983702,-345.4878291469896
-75.95842349819186,-70.7264720793675,116.72084637818898,-220.52592305884187
-370.32330689062803,-82.94666561215904,121.02505815892944,95.34791391817012
-331.9757716083544,-70.30573302504828,130.41752867286337,26.11648850968915
-35.988706708478475,-58.57816495628453,126.08350693350462,-291.0732423364984
-19.342047392611452,-74.14382079699159,125.02588228492303,-295.32614464986074
-312.7110130741026,-86.83926194531642,139.67343700124434,-0.8914926641240292
-380.0600365194635,-86.40684644777323,148.07914919707665,54.13265261502618
-96.8891245348554,-81.04251219412822,143.14995309227848,-243.43988759982338
28.548447202613353,-88.31244019851528,145.4756207132755,-377.1828794629821
-218.54053152119664,-110.75831584779648,143.13756875101788,-91.13602053631304
-400.67472488587447,-105.44623954679999,169.0997790327446,48.143276921366684
-177.64291348752846,-89.86161367290543,200.0727321329467,-264.43148979123055
64.05526996697094,-102.51894296481387,185.68493507426956,-485.3257832455931
-116.76035619419312,-112.25071401998044,191.77661554727285,-296.56564885868573
-377.9656963785316,-103.99261693676634,213.4563734185537,-66.13129827996902
-245.2524737743656,-95.257579481733,222.8512790330651,-233.62812612534287
41.76397123834468,-97.67641382744965,214.70538599260578,-523.1427437575381
-46.26311858925798,-102.02280321210725,217.96542255102904,-432.1261905005988
-362.0102069634349,-101.55942316114186,247.09142574130175,-152.40975050372225
-343.5100636208265,-98.20488248355237,258.37493286383136,-197.31504315392337
-34.07765445579057,-106.985827559646,238.4111033055965,-482.4903205577275
0.27597077496993144,-120.6033396017413,232.92476644670685,-498.28404536789435
-315.1309837818487,-107.91445502229497,262.17753311215387,-228.19457604190958
-408.1954475751871,-98.69449404685359,269.5962730156074,-150.10717479225977
-115.45045086883904,-109.93272560403271,243.17581720071976,-402.65137616406355
31.148650810019543,-113.29682129971337,232.31502487771732,-535.5348619793923
-212.63906888946744,-114.73722330821164,235.41243139387694,-279.3937250032374
-386.1994273858769,-115.76188546696031,226.2933094567302,-74.35199395428882
-160.2383956054804,-117.75083299658473,208.46937057212912,-279.35670817233154
80.39092591137891,-118.20461375708672,199.91705012895946,-519.788574283979
-75.73393783675668,-112.31160978132279,202.589218116178,-362.15389088620805
-323.29087731992917,-109.90222218278801,201.8812251601963,-97.18597176616841
-191.51643130213932,-120.69088865610296,180.07791185230423,-186.78755426930013
96.73167835852603,-120.67247258294925,167.5089702850239,-470.55695690831004
34.77605718163265,-101.09223403500458,181.51700427205,-446.6463072963954
-244.8256533649265,-109.88720192450387,176.5936690410166,-130.63257117298525
-234.13208776091957,-123.12197921433813,166.96510428886464,-113.0515102770368
72.34998300711283,-121.16121429895225,144.55659182134352,-398.08210551068794
133.31927440353306,-112.31268635122856,132.75761195291182,-446.30925229844775
-163.84161310082027,-111.81303915407061,137.7184174827832,-138.12688145948647
-284.3919822870846,-113.81605869865821,141.77057280472664,-15.56642061364281
-40.691554441755,-108.45703516424634,134.8518095910544,-266.84571762626706
116.69907868372631,-113.28564483487838,117.64562393154806,-397.50370129631926
-104.0812107973771,-113.75025041534904,119.27292991854132,-163.79511828893772
-321.05236470410654,-117.69359823706716,117.06523999076008,76.0773522711933
-164.65326403394076,-105.04344136181996,134.82178873911369,-136.4420695323547
83.68178999379035,-99.15760498826926,140.37446020270846,-418.06224288766987
-16.573632578896277,-115.2186703439455,115.83042146232731,-249.6046158349378
-286.07232823855145,-111.8301990041715,123.44051049165176,21.493898478557057
-199.98297113441896,-104.56777241161012,136.20008699839352,-101.6884359472655
108.48626054231082,-106.99367996644116,125.56425140892804,-409.20198282886565
93.51983918748772,-110.84305687022497,116.67717034715197,-372.5204432279028
-209.3125263215593,-106.45828843941973,130.28205296732594,-78.43996585108759
-238.49957976457117,-97.72820638703007,132.80701715228867,-58.64944121893042
70.19097795052262,-102.61334212014111,116.18951264702412,-352.6043494239921
172.21329856238108,-114.27559682775619,98.9990578486662,-418.9161463430659
-99.83267487573586,-104.49900842074592,104.93366365156898,-146.43798207044114
-260.9212931472204,-83.0712806123883,135.79495111855252,-51.404590195987886
-19.584420115336517,-85.04775169102493,133.68162553137898,-304.37274350212635
183.76143306024576,-93.30341535231885,119.83106578000607,-488.48174861167365
-22.7635790509527,-90.83123980122143,129.80782945470395,-288.9429852233153
-262.1090911458946,-85.98298598374915,138.84803182781314,-54.1026042533415
-88.81567820327905,-94.319568304773,123.46564644194115,-202.87370569550347
177.9113164471853,-102.10299098052818,113.89954978629238,-463.8444394849128
50.181389976792936,-95.21644918452135,121.08273352237255,-346.4122087219961
-226.277290349735,-95.23484253798075,125.83933099199622,-59.6270734832634
-158.12103556487915,-107.49467655871652,116.68793634157697,-105.30734661211707
133.67196758010923,-111.87530268256094,100.18179069549585,-381.7467583533373
124.60280141754389,-101.56843507936503,111.77567978736784,-402.84870673886985
-178.37208350426928,-86.43556060340725,128.35086291255277,-122.48604802383306
-223.3328705432056,-93.32440504661801,118.71047218152218,-49.908504321937606
73.74567567630254,-103.58389631129594,100.60574160970775,-324.47830453802385
185.3901192328981,-93.76841433206765,103.87754726459778,-457.9232221874622
-81.95154173365594,-83.4998350907105,117.65010820280577,-206.5521948077572
-236.77334214769667,-89.89380537013696,118.79714548843214,-38.204875273226364
-2.9667607582155817,-89.92349596160749,113.71059640974832,-278.58017359625666
211.137609903961,-85.49012014488888,109.58261623642737,-503.04822646128383
30.312744479243378,-92.28891057760269,109.83751908686526,-304.745910629456
-209.92092182626254,-104.03732518131201,104.26286708597112,-27.44466187550044
-77.77333816566694,-97.73869622573834,115.64519222092731,-196.52158524336488
189.57187741597198,-86.49150796837034,123.57242133408162,-507.2241144844217
112.42074620781679,-87.90361510600287,117.09836200635674,-410.52486820392545
-169.91617008936072,-91.82198625105326,116.52690556516015,-103.89157893250717
-151.98335580411097,-83.09402288147503,128.8029563672231,-154.13674869628377
137.47638042156214,-74.78950393493692,130.2934481581385,-473.477261520261
176.73392375846308,-78.14619684434552,116.0654849397122,-484.5745654029312
-112.23240967299316,-78.14334070979447,121.9444587099915,-186.64830268612377
-208.2057487000618,-69.41306690532704,139.1191761960327,-124.62765927528172
58.551314808105,-69.91699384797037,142.42978434011638,-416.79192192372744
203.21856922524452,-87.9299910743171,125.70643284274675,-525.0656191018322
-45.80420762609358,-95.2325495762421,127.31990902536839,-256.02118544996955
-231.7393613663632,-87.95303136313358,142.63817433264117,-92.7936395035097
-19.23587111121327,-87.4946963449222,139.50299605233326,-314.605860917495
214.161295858358,-98.68435674039702,127.08771012374498,-531.6365638174524
52.794456065483054,-101.0823611896793,121.52615790022013,-345.7788385133235
-235.08049113691652,-75.72855321079957,153.01180107368262,-119.00306291181116
-126.83706818427868,-71.8733639935037,162.42704742988286,-256.71880916258806
174.09049797825392,-88.44992333243908,140.62596265216703,-523.3537812420763
115.76180978873708,-88.39301977443978,138.57502811887994,-456.7717190868787
-185.86931370983876,-81.56881330911735,152.65468611164573,-166.72739162973144
-180.51109528639108,-90.90250868206371,150.803158018433,-161.88320177491295
114.54819683908696,-104.57386863933259,146.412160987144,-459.2490138590924
169.76083229774102,-109.88781827453226,145.82772090251908,-513.3379348713535
-126.41384108713275,-101.09146760117888,159.06132603425064,-228.899882899659
-250.57199197024104,-90.89253952763767,174.30906626880918,-133.89317411510862
23.371216471607564,-107.02056911307909,151.7469258201545,-370.4128294206978
186.85955208934206,-109.41742724432974,149.12292712092514,-538.6121518063628
-59.057589188422284,-84.98117706784723,176.61892876266094,-348.1366226197586
-275.3540442914718,-85.020255404258,180.74530481040128,-124.55391337790428
-90.80335110777759,-92.38120834747849,177.07526634818663,-309.57382304099707
159.59261970172574,-95.27765068296834,171.4440193759428,-564.5255402574966
25.582123099067605,-96.20751124181047,172.74105018722057,-422.80999215502703
-258.45658293410816,-93.79195754245733,181.8409939610606,-138.39577468299595
-156.9797182340209,-98.22952247757046,174.2214784406406,-228.62107392696757
143.395535543416,-105.04502914578823,163.1312058794269,-523.3147749957602
103.8736370503433,-109.87619358070906,162.02077069974172,-475.1717201865425
-195.06664415785522,-107.92844116357776,169.79640408314174,-171.7885511180937
-234.21113671613236,-100.66499104393898,170.84425402372614,-137.28594168727207
46.15844736376535,-95.29935987518061,173.24817608907955,-446.5483062086847
138.87740891231206,-95.72942767076708,169.74138630351666,-538.579561214224
-115.51538013795873,-100.10622224454309,159.1209077204536,-241.42591425543094
-256.488425499042,-97.22624496549246,166.59229661958867,-107.4251867179618
-19.912294711202236,-89.92737349309884,168.85977007260837,-370.9020628139515
173.17246697430468,-96.71866658441165,154.5176821140891,-544.1078051476755
-25.448446783982924,-103.03144321296053,151.82733827106193,-321.1897423134324
-268.8986451451281,-94.2815549289622,168.16008764388909,-99.43499653835381
-112.2047553007341,-95.79067476057328,167.85626555957907,-265.654620999532
159.1737297346248,-97.71652331882662,153.8832800139976,-527.0980858230747
60.04845183280559,-107.91376951604563,140.11192455003444,-385.7546443858091
-227.88154552186276,-107.92674680226062,146.37053077566324,-89.68799213349779
-196.4103610686921,-84.06446194918286,173.7668503059919,-195.88720285255275
107.70515319645877,-93.33210128538717,161.13812940848078,-489.7005946663355
118.83839446391133,-102.0602958080771,148.8604924357896,-470.60429638853054
-181.2955549887933,-92.29634621630932,163.00915204917072,-184.4690128545362
-244.3910098266968,-84.05555690714665,171.38655037646694,-139.70066941218576
37.36424360168401,-88.45840141084989,158.14591115235066,-411.9076728674327
148.16257291898341,-93.77363189169647,152.18158816611242,-514.7927855303981
-116.49454450488291,-89.85043334954051,161.57523266397598,-252.85055965133026
-283.30431393627197,-90.86994336957207,162.25708965759117,-74.68312417733947
-48.59639723011916,-93.82463693921613,152.8081544766603,-305.12948010729303
202.58288036857243,-101.60662216153722,133.97457786388918,-530.8710660850332
7.170860462937858,-81.07121725859001,155.1600104412987,-379.00853272171764
-283.41498774284105,-65.47291871738788,176.4611602648402,-121.73512155788997
-134.49283482264875,-76.25575918985888,154.6978249237238,-229.79954215083288
151.04187543739488,-78.18521901768226,147.04771512797475,-519.0799339635267
42.65752946089924,-73.73543445125603,157.68076915146355,-427.49774466369826
-261.81236615404066,-69.84481018092492,168.3157330313029,-125.34812134227619
-224.46505941798438,-78.20421678427915,168.40172761994145,-159.38854821615564
66.34031880169998,-84.05722413957712,161.12120359212835,-452.167234595316
84.74199540214497,-82.04685909965809,160.53742174482807,-472.2014572157837
-199.90951519980922,-86.92323108122659,164.97614777590803,-172.41899651386763
-274.5403357623743,-93.3201472625745,154.38422030834536,-66.49806717270604
-15.063987484551216,-91.38249701434026,152.81318894723404,-342.87821570311945
99.93454832463085,-69.36691041639418,177.0335578689188,-530.8763111104993
-132.81804579821076,-73.24454363439062,173.8119572264431,-272.10685723561187
-327.9508383717616,-79.14576832828767,173.03650374338002,-57.06683900552276
-131.47812487041682,-72.8314848383847,173.29578140582433,-272.81320157398255
110.36474584489366,-81.09235288957062,162.33919667658498,-503.9762679768779
-42.74847897084191,-88.8606814664302,156.2946443453856,-322.03972977070305
-308.68731197361825,-82.05372489487495,164.88483996817047,-59.239077502748074
-206.16851448904004,-74.29553845507152,173.78948454370038,-192.67233385859058
89.5612316294172,-79.16019819395235,160.73045488154486,-479.8803705256092
51.11981968857954,-82.52350329391801,150.851650119416,-416.41029989535787
-231.22864494478324,-89.85686472232224,149.32406939026427,-105.33275851656326
-234.05127719611048,-79.17711160832677,162.56752018021058,-136.70909006080893
51.599303431091606,-67.46385315108773,172.78374351187188,-471.96004526665075
128.03736568223565,-85.46943156180545,156.11129986238527,-507.21497837420725
-146.1607085693843,-90.8274284701431,155.71288902518918,-208.59056333775285
-271.2199504194176,-79.6509718957842,168.5258516989,-108.4605268652919
-12.894709320470087,-77.71761558757217,161.06598035895627,-371.8060129257422
160.57925828592028,-82.5506296743723,142.36472788427199,-516.7032033551626
-69.41853251464572,-86.91299035249624,142.09720081678245,-266.4473248175109
-292.4188659168797,-84.02171091168678,156.97036380093874,-59.36907876827764
-111.71101969256989,-78.20234581655008,159.62550368411516,-262.65429333405837
159.33321500124924,-97.69779419580719,129.1094553421545,-477.65064121990514
17.160023659736222,-101.07168488235615,134.78301237758404,-334.15361674039247
-282.49336811862395,-79.61645520990258,168.7627048951728,-96.87792826772808
-191.07528136600504,-80.6441504241001,158.15792640809505,-172.8543781189482
109.88942517219726,-86.97432549981984,137.7700695729318,-449.9105676930411
79.73552254498611,-87.40700562533299,140.59301025228697,-422.929112022953
-227.78553891541998,-83.50794473776284,152.75070987574486,-120.56621453495109
-259.78869897871243,-80.63312029879148,150.42111503137716,-83.7172851544061
25.19927912210776,-82.10288379956653,145.99282449463894,-379.2050664854143
106.56596169633345,-76.67973706518353,148.30313661767093,-475.0362946573409
-155.56386281347463,-77.64026515565835,148.90144584542654,-194.58345881813707
-262.0435697275004,-89.40815368395761,148.07597644452065,-70.13633986511164
-0.850967033951024,-93.82922280181337,139.10481132767427,-328.8449318560836
180.0333774120273,-86.46647883150928,132.53323355205345,-514.9716473004075
-6.021363885148425,-85.4588451845314,132.25816224053972,-315.7545626822076
-222.96667269086277,-82.0781229051873,136.88538978504923,-94.99974990243452
-57.55034119520701,-84.07287713663402,134.15832411339002,-265.3552546140262
204.79409047378164,-82.09365314404917,134.82569642197052,-549.3244167847168
106.83337267367943,-87.41257815654659,127.37117784189537,-425.4789780232005
-173.59773840101315,-97.1933216912503,126.29087208914439,-115.5491069660292
-135.16804242381912,-78.70020770569441,133.6808551722001,-185.16901131259363
145.56179637000722,-74.7897301203523,132.24502107579875,-486.05263161207546
132.81093208031794,-81.5660419007396,141.4432347416658,-485.8212266294421
-162.44397832340945,-85.46125502271644,147.86662595201582,-179.37340321540256
-218.61396074557518,-91.86055572341283,143.605992183564,-105.92073821336807
29.7690566352611,-88.9459849789994,154.73272988909943,-396.5700666995509
128.49619266475628,-86.44773005439139,153.657981246462,-502.0708615168816
-110.75905413887789,-99.6057390244307,133.32573128251786,-195.21403653329443
-298.4270623395985,-94.77399148391201,154.45969897770942,-39.976851272072636
-96.08587055109113,-74.78547571607253,173.77812101071245,-310.2721819639274
127.20287010835898,-80.10927911938522,143.82918945558097,-485.66413413957787
-54.86918846419544,-84.4640820303718,137.75414872000823,-275.14449781371917
-313.790714997426,-78.63676879382744,154.62398492992563,-35.73047946083253
-190.1326862713133,-78.19475029703088,159.1893428225454,-177.73583919176394
91.94040263026945,-86.95796426194832,139.34718399393827,-433.84495209864303
18.760529588667243,-90.32097810794191,127.02897156401531,-328.2562056643862
-275.59660771578456,-84.47711725248065,135.71157614004053,-34.4730443659986
-252.30543120487326,-78.18632639234502,142.15730383273555,-76.98477310711604
46.46844396896116,-79.15945328164396,130.4621289632822,-373.0552971860294
83.31986538943113,-86.91647349987129,122.05376823999524,-389.99042762621826
-212.85817157612667,-79.10061032724538,141.1198150511045,-116.51107385591482
-289.5974849808228,-79.64024188934232,139.30260590914645,-30.225683252739593
-7.582849268692587,-86.9767713915558,122.61656713525711,-293.6464206877592
130.50566517049828,-89.36813899157688,120.51852566324698,-435.6806500370237
-111.68405987158731,-82.99788168041685,128.48611394702,-196.76453086838646
-300.1753679773257,-77.67231013670418,137.45108471609325,-16.629318829797445
-90.89372691003432,-86.98142055771868,131.8620083477581,-222.87505619122285
140.3463800531171,-90.36257042710162,120.3959091841464,-445.2492581685839
-15.95457874806789,-90.80707711591636,119.23144608968572,-275.0696405597878
-278.9651624858079,-85.46370910243398,129.29509857848328,-17.28089112081968
-169.35655989761733,-92.35105333547821,125.52437727647896,-122.1271493449596
111.1893876692183,-95.26228929448192,120.27989783922402,-410.1567577446946
38.089065665765105,-75.68045360884868,138.2051413710836,-382.1504778178998
-242.81216989665342,-78.61913249266672,138.63172382405762,-79.77729018393109
-228.78353661052657,-85.01972545542654,130.94425381464217,-74.6953036247075
60.701848577520465,-81.60130685648477,119.71687192414167,-364.98380195807226
120.41558567425938,-77.15446289509703,119.09927879160591,-431.02278599617875
-142.49164521458667,-80.5627684453385,119.16558758373267,-146.86726555880503
-255.14394574150427,-77.6835758112177,118.81909225622995,-27.5569323721509
-8.760864435622505,-76.2382586539611,120.63822594781027,-296.33318574235324
169.7329684885948,-89.85966335835535,103.8947089243117,-444.05688512951
-49.89228406869065,-96.17589568642582,102.64549585142721,-201.5115670466494
-266.8054618999874,-94.74985764646588,109.70343015893596,15.779426917179821
-91.30948209748149,-78.18982343590991,119.67236965041529,-204.48675422257577
153.0908211198807,-71.81430236284845,121.32842157226371,-474.44406103119195
27.778213532214448,-87.39027537747043,109.94609431662072,-305.856589355709
-236.09099926873725,-90.33760547062823,106.40706224685984,-13.786732981255264
-163.84097275770193,-76.72600688844122,118.68875849564014,-125.85749293191394
125.39678558665878,-81.59808999101192,112.41472727684774,-419.69526830048227
111.8967775884986,-95.69478045546795,92.83069769150963,-355.6041779394043
-196.44903673359838,-85.93802229365683,109.37141602550027,-65.45461771424941
-236.76468985779684,-77.69775831351619,130.44052204964737,-70.52738766461799
53.09765346730421,-86.48719153301182,116.76610317571462,-347.3220190539859
137.1878367937413,-97.66018008952263,93.23475051010986,-382.07172072686313
-138.81980876096458,-93.7396884054216,101.14497682170298,-104.99041056579411
-307.3319637248707,-66.93775963695664,131.53930468723476,-5.025183264902756
-62.34360462546203,-67.93618054101384,119.18228125999826,-242.10523886501238
130.5468776480719,-77.65769445329687,104.83653365765156,-412.93626832516446
-82.01957337938408,-78.60291834906565,112.86407888546843,-200.4992257103391
-311.6909482595943,-71.80721938421054,127.72468115965445,10.877024069105408
-133.21754671988262,-76.73232961350658,120.11021576160695,-161.52196603227299
148.27933738226966,-86.95853210986179,104.67531867652845,-424.7650637959087
41.25808292279656,-79.10415282777892,112.28691269346349,-331.09927425072266
-236.00151555065258,-71.80376445812053,122.37729508223092,-59.53441035621344
-168.2703740017552,-78.69201355331543,113.71755212407223,-109.70213651981027
129.6575470690118,-87.95944448087234,95.23088632487477,-385.1481082572838
129.61589756843426,-81.55765152972181,96.57893439411943,-392.52137958682897
-161.19147212585355,-65.93462502472393,111.70211103869586,-122.65174310157586
-214.39988047367967,-65.99065401541557,115.71217184518999,-73.61691512807855
70.91043117183436,-73.3243976062983,109.78743747045735,-362.1312487939338
189.73897013224405,-73.76208213546485,105.25181922576432,-480.0792695854299
-66.75123666292886,-68.37392591890311,111.22827672190273,-221.12355256414708
-229.96958243408372,-74.76463088907025,113.37428303107359,-45.78079327515401
-3.6182327183543346,-80.64981467480293,105.87296461937167,-269.0133272522419
196.83660146303492,-75.73019086557018,109.54353225098714,-494.83417268397847
9.601728613834071,-77.15712280700974,111.26852649935252,-296.56528006617157
-222.72190179382312,-83.53347056736675,99.35289560652095,-18.99665494217288
-91.35419223305163,-82.11429479441041,100.01608484794109,-162.16741904903358
169.43492728065098,-71.35498391915641,105.50467904899254,-460.59821325054503
92.93411153179692,-67.4058334984721,106.2873426100688,-383.08465059787574
-205.30276117855317,-74.25194008942371,123.30740614700488,-92.49594981386724
-196.2564655846591,-78.69017959425604,135.2145117350787,-122.7760113700763
102.65766960558744,-79.6609070456175,125.00064553774145,-421.9663019748166
144.31685490811444,-92.30076388803444,117.08040052447667,-441.43420293567635
-137.74677067742553,-93.75927699115219,123.95977886794797,-151.83347795614588
-229.66779701328375,-80.63787803437114,140.1345612414909,-95.38834988271553
37.20177726750233,-83.58160549290425,134.1788441689782,-367.31114419204766
180.74857627707777,-96.71152255970341,118.43389184908023,-479.9422422353551
-48.68248798849978,-99.62078603032631,118.57404135982185,-232.18123694442028
-230.78682764256038,-96.73409679131701,129.5094564194198,-61.04190752822916
-39.518528589238535,-88.47087255584526,137.5525217645965,-288.2405449242086
194.12289629447667,-87.46017232678972,122.16177456244743,-508.56189952294676
54.2315928752228,-101.57080830278613,103.45861349903352,-310.7624718580894
-226.43931456529512,-86.95232035679737,124.73747492166284,-63.348994100736924
-126.53442745527398,-78.70418159342556,132.18874263938645,-191.43004418422933
174.33663345594533,-94.79279175939298,106.47912915198462,-450.5336115892622
124.58925868770811,-96.20299612674008,104.90093911729693,-393.014822532518
-179.6871472198684,-88.89088786045752,122.3959620840736,-107.33724990728606
-194.70344987233537,-86.50531951686911,125.91905285922425,-100.0592072700957
103.18581837985151,-95.29123076083955,106.40942675050505,-373.7691527959582
166.8516163949582,-100.60575924057333,98.98507713975569,-423.21436367676404
-119.53216849652658,-87.90205174886992,111.73799599931343,-151.1860794553441
-245.59072135862894,-74.28451015052406,126.01359817293547,-54.71401156665454
30.1322451963036,-88.94822258465707,101.00643795867029,-289.32177631748704
198.2457228939034,-92.80733902814787,88.14627426070966,-440.89346916355106
-51.40210828214808,-70.32368654797035,120.04042550578298,-253.79200425957887
-248.54937096367956,-70.3586498627555,113.94113254588498,-30.249690692756143
-59.54424183784071,-68.44428023791001,104.3978497509379,-215.11181607199094
181.08810821520473,-68.41244704016543,99.24519512511253,-462.71568803501424
39.64812563327484,-72.75622931060043,94.22234042850201,-297.86050486462335
-238.05344809343248,-74.72971675682444,99.94198850081729,-10.232029528759693
-160.02708543570898,-73.80513865790078,100.56183449583501,-95.78168441746344
109.17210706010566,-70.37613271553431,103.07897786320626,-391.8717330074374
79.19941346623105,-75.68764317234626,101.04643164931892,-351.7619448847676
-203.64463752317135,-76.66236372432242,97.15282108052948,-40.0985323014567
-235.43185061926962,-74.76513106720482,96.76928831309402,-6.659466538555442
24.950030974715286,-67.44934684600001,108.4301606503588,-314.4820187519369
100.85205163372697,-65.93169540496598,112.69877656382168,-405.5018612370023
-145.85236329005352,-72.74773873376482,103.55794644239971,-117.75537236446505
-289.0323052466445,-70.35031687807664,111.06862591378325,18.88750759565804
-64.53381756304415,-66.46701821248104,115.30566530807464,-233.07393295354063
130.0255278182853,-73.25705251866864,95.60112137206211,-397.117813536572
-77.58046150767237,-76.64036161190592,94.86239313326902,-170.63828011316113
-312.26104292454744,-68.3734242980951,109.27859383949475,45.91292821018931
-151.98295785334906,-60.11686569662304,106.04545091253352,-125.47542570387482
98.83897359628725,-59.113199379356374,98.41893706928178,-379.7601621141845
-6.871153706559591,-69.31334704376688,90.97532801285749,-244.03420056156205
-301.66355536301626,-68.35714730635301,110.36684891429874,32.3626078827839
-267.71410710099855,-58.64449075121104,131.97603615950337,-54.472457859514364
40.438621555831915,-73.27470607309301,108.6635765861861,-327.25743893869793
50.4007686916142,-89.32639709358439,96.3908957017568,-301.51954301000785
-263.61068266590587,-77.12518822636174,119.78844256212257,-20.835971157380964
-348.91427104716024,-65.95211884551436,148.20316234361715,5.430769761716986
-66.24738481187687,-79.61380707060344,129.23009515385502,-249.44642624605837
59.346348531830145,-77.59896415855043,107.19266542592727,-341.3890274525551
-203.2716224578481,-70.25980965316738,121.94359194858029,-94.8822227389166
-362.8318885571084,-66.88653896486788,134.82046799059182,47.84688486774329
-141.11935961498764,-73.74255637597484,134.6826798164065,-184.45070320185044
61.84871462149829,-85.90412060301763,121.32279912980499,-366.25975190565515
-132.58999882081463,-72.19460901276227,139.15918608257093,-203.7011478061836
-395.76981564160513,-59.04240540478092,165.31097470290788,16.28381073531866
-255.773039460375,-71.29295866717067,163.54748328499178,-121.20106089290068
8.266876803868147,-76.63803624244633,160.79631854813852,-394.741687277908
-87.4279734145597,-67.30983583565161,172.86404648173544,-323.22870381563786
-364.82467105469266,-73.66912390729556,176.6904790234691,-28.90238207005761
-332.11239265400405,-75.18592117627124,164.1269431811912,-37.674922558035476
-54.16391080468831,-78.59835900620078,164.16489630628308,-333.1342107449965
-29.305337987347087,-81.47014352424688,168.46847606142077,-366.28270796875256
-309.74446392533264,-79.99703432501147,168.03691225169723,-65.9364393527917
-395.64999594066285,-87.3695854873819,157.4513494112363,52.7745774328722
-128.96446342355534,-88.84947009636042,149.53563916863143,-216.10293683345094
-2.719887511732051,-65.37107518118889,166.90610346844073,-403.508938163625
-233.43998572764465,-62.90118359238731,161.242194613864,-146.70213594364571
-411.43552530662777,-67.33252667972538,153.1770921083946,63.491709422739035
-225.38516262176918,-60.04754223678397,159.25552288691543,-153.45768699198817
-12.943281085484177,-51.232098288335386,162.85452090515943,-394.85321272024436
-158.91723120400817,-54.11735990143484,153.88202720205376,-218.3006135889708
-418.1163331798749,-56.09400326789049,153.72064437737455,61.281861536357724
-327.91618686769345,-48.3349109673475,160.6783799613674,-55.04880122684577
-40.09280566823084,-54.66601419667577,150.5380603942697,-338.54982550010743
-75.66328107922212,-58.03012296589568,134.3060846107555,-265.4281365409507
-355.6939499492855,-58.04056103282429,124.95711493689261,53.43876071446734
-372.55485473234546,-49.31216721502827,140.16580697085683,34.608961028738065
-84.67821938217074,-38.57538352521579,136.71075732266885,-274.9191042298301
-3.024230704930508,-55.12480068700812,111.67795317683702,-300.0880656334845
-278.4852595678025,-51.21512026898152,116.09602392529685,-16.588411904590124
-398.22453627479445,-43.94681361115098,130.36079313842663,77.81101467530794
-124.18430420893732,-57.14999016878833,108.74204108389685,-162.8578258972952
60.429186062927414,-71.75744806968758,82.65605523408662,-297.6970144997906
-162.16164234136718,-68.80513776368585,86.22926148077289,-68.46416723932423
-368.44796136339363,-58.10179304584369,87.91584764973422,141.36220669857548
-157.5667644526274,-66.44010506487339,67.1504993412922,-36.90890750524922
107.71703642680636,-83.50494540759063,41.443166253123096,-257.156228345783
-36.155521399497324,-82.49238502668952,48.526120896649616,-117.89366548761676
-324.37148444884946,-64.45819671308118,79.06676044924771,116.53435609326479
-232.70205861059839,-64.51113211632756,69.9144556757021,36.6603646037099
83.90570678040456,-84.51223464639135,37.81435089053259,-223.62364154307718
61.632049656368324,-89.34350512157617,31.82037556348437,-184.18296868185138
-225.74356722739375,-83.49159267304472,38.60510510065332,105.9138788096114
-234.32813684489216,-85.98661240825788,32.377834834589265,129.42885450775816
40.8499460595189,-85.50844471333329,31.33187320822169,-163.75649161381958
119.56919125098621,-83.99428247240883,33.135140011085966,-252.8540788598255
-135.98214333517734,-88.37474555012616,37.626206936100914,15.269317894779025
-264.8366755279358,-94.77166960464884,38.752975442881876,155.8283983264442
-25.12318646198199,-96.7524294787133,30.262563929037597,-82.62076490880119
159.05147852929548,-95.73691192026219,25.158779449017473,-270.53754576407425
-37.72781380208105,-97.16848145915952,35.15273179423703,-78.60191260312004
-263.4086259259097,-98.67102533369255,50.51903386981398,133.59886327910348
-100.71061164961951,-99.69056173171847,42.41164735786288,-23.782819983385856
147.93035260722152,-88.9244827893623,43.55215272610458,-300.4875206813847
29.925740505418037,-83.994845913839,55.103929930925894,-200.78875211538625
-243.83335195983145,-88.40125229746727,53.557599117953764,98.9637432373384
-191.55568234348212,-84.54710179861549,53.20009279728605,40.81020716816803
86.20144084452484,-82.5872517360616,55.68764636764267,-263.3101619353282
85.97649936458039,-85.45940840448579,53.641016180144725,-256.85245965413
-198.71923011010264,-91.80173704756344,54.16585542219453,51.898723748241395
-252.41063484401792,-98.19929927500874,53.33511979196848,115.822135535201
11.184702946071656,-85.02797275658273,57.15719215632652,-184.0548722275395
103.8209104329903,-75.7026443439878,65.7872437408732,-307.5008721432315
-134.65420350473158,-93.74274417193669,50.83103942863447,-8.653197639006006
-297.2731997040614,-97.19948810639706,51.54152695240395,166.7612167425907
-98.07398086492434,-82.09542264498685,73.29011662203082,-101.43611059044888
117.00217733643045,-84.9862671131674,59.39650091624532,-301.98419524807343
-65.33936832256795,-86.89865170263693,57.23465500656017,-100.81518760509177
-324.3929637236554,-79.11778504895666,75.08399351111285,135.3385398666196
-186.2741311292138,-76.23222322159216,70.38667228187634,-5.409104865747723
99.2505980180729,-83.531210440014,52.98168583062483,-271.1791813463601
28.818913085403363,-88.84929110989682,45.53296112217756,-176.85085209174835
-263.086434991418,-85.44667621007301,62.02916563671516,100.44953984009688
-243.30579993810278,-75.25107771822617,74.32437081084248,47.10411201730688
57.880347593715186,-70.85547457424921,63.10125738792641,-256.4535479687633
99.52733988683818,-81.54425077422508,54.67870276099379,-276.33971771754636
-198.6830958096641,-66.40733346955102,80.55897149142848,-19.728367074795532
-288.0724168472849,-52.30243688802519,92.87509263024224,41.00913684923705
-2.8424997491112705,-66.47653861138753,74.22471141414407,-216.88394375714566
139.95910884603754,-71.3123491957735,69.66442564751328,-357.2354432212189
-99.96501463837082,-73.24010442454065,77.16273154556164,-113.69290945021729
-275.9776034057583,-79.62848684395942,79.32467517763037,75.32873626772619
-62.042555625003864,-86.98988253742489,68.32737981711178,-126.50469679188392
161.53404250677633,-87.44129701397117,60.76785929372589,-350.6506417554082
-17.197491002788183,-87.87935871474173,67.46012165078857,-172.1755421661957
-280.11150958343524,-92.29640508687531,71.21187307986243,105.34709225644434
-164.07963873513935,-94.7855837586771,63.559840389779815,-1.8484119682068592
100.68574677011499,-96.23359554051964,63.67534120788659,-284.78127439395763
22.917884099026594,-78.11731919019957,85.5019243995934,-258.5085304747332
-268.27627871550567,-75.68381816975702,90.3304912835924,42.118816892880425
-270.8835336150019,-78.18052651812997,87.99788376881249,51.42609704965556
6.722724668191887,-72.81437100247867,87.96399764795369,-249.99106114481762
62.892441843036124,-67.87975718026485,90.7608641173845,-319.4316461742537
-206.36690805948325,-70.79821334724532,90.34965217621672,-27.872373610507502
-319.6390388036731,-74.75076266613549,91.49679040541427,94.14393961207598
-65.69686769701951,-76.72192614914532,90.39644799295557,-174.36756801574208
113.29833271057144,-87.41473784446636,73.64542058230138,-324.77153140275493
-112.74758382180845,-89.82803973307738,78.7210849640555,-90.89195983996113
-326.53954098955757,-88.40146925492189,86.27095410779981,122.06785296441899
-150.42870089461192,-73.30513940838729,94.7828683058875,-94.8597542638944
106.93823933994103,-76.69327263737556,86.6868181398141,-351.9824469347568
-11.942587024553202,-90.80406094667534,77.7482367666065,-196.2638494037235
-289.66501166694275,-81.06351379878924,94.17771526499595,61.29918670483104
-206.24670846884538,-67.9356647114496,97.70144587795114,-44.83916476772059
86.72377408775101,-69.38905005954604,87.52616708147752,-337.3808636977488
63.56390066779031,-81.53901675585261,81.57008729923363,-291.67344604318475
-225.76526937695667,-74.21723807797594,84.48303104568991,7.1908662740291796
-247.60752554221816,-65.97009413013272,88.9977848479674,15.478922568051438
44.54514316647459,-77.20521999726704,79.68848400097203,-270.7134189800473
135.1078636015933,-91.31005330606689,57.607172039049665,-313.1448871968838
-144.38579280438833,-88.85301463290368,70.40975408990958,-41.05041060049476
-306.7081612561082,-69.8653631358548,106.65126133454693,46.324475421795896
-60.56976503459275,-73.79451447439436,96.728487550025,-194.70543092594502
126.655408854962,-80.09815421123199,84.33521597791285,-365.89463760762305
-78.51600762648441,-82.01772044851391,86.03033966382557,-147.9789933744993
-314.2359964074993,-73.7519020334903,99.46229999637106,71.65888734671675
-158.84669710352844,-68.91127366396327,98.68455161245261,-96.89190717473144
104.46043917050932,-78.15828504289,81.31456707715085,-337.484468317595
-9.892144627214108,-74.69012058712052,85.0769783206002,-225.01763855640613
-287.1172310258868,-72.75233920749461,88.3896592819501,64.04024616519264
-232.44715870746498,-75.2483720191984,88.50309354387844,7.058294462753397
58.52706365801098,-85.49664113387266,73.8933380171219,-267.97919904107397
56.64093571677807,-77.63028342211976,76.70431541356311,-277.3856346988077
-236.80967033064957,-65.42215140929092,95.26655633845567,-9.05661745520349
-281.2381766743834,-76.70174599625825,89.07008027535814,59.28622295960873
-3.8616471772871637,-79.6402125390802,79.73249481038819,-217.12624530325715
102.24042538515461,-73.24432393429666,79.08690230656421,-334.26307990939443
-151.13640546431472,-69.32173720544833,88.9646297968682,-85.38012979561147
-315.45952404427817,-73.7595153452775,94.03896376755354,83.84101823634269
-94.6113316005433,-73.78709310708307,87.99035040752966,-140.71997175360278
108.74494293156594,-69.84529653206957,84.81630194400728,-355.21739712603534
-62.076540952304754,-82.5010311868332,79.22850977145411,-151.61537419311824
-294.8127553556633,-98.1598779382551,73.62515990957743,120.5892346477795
-172.23258987405157,-84.05025483740215,75.71980813262603,-25.382139116294322
71.95269832660622,-61.06978733120603,87.65298682401291,-327.9338107249847
-1.1048855605755814,-76.14083880658326,76.8731263374561,-216.9309181598427
-273.3532220183166,-82.5020819564174,69.4556743997683,94.4051015912672
-263.2433882453768,-70.84317880152939,81.74031837266128,50.367489670039525
16.82021081507533,-69.86150417981138,79.82227270712593,-246.67789142446964
54.8000086393633,-70.77908504866957,63.13716039354589,-253.28033998028016
-224.5517544482261,-73.21062066513488,64.18145509442826,45.82093970488382
-316.47955241503104,-66.42934620961282,73.57198276187978,120.53675621640649
-46.962565367686175,-70.84287381484548,66.11741118861573,-150.1376066007292
112.8591893569994,-85.4396230999409,45.964282766680924,-270.29952572576445
-121.58363977260122,-80.046891117733,49.042451626615495,-29.17050285587542
-318.379165133294,-69.84290296836994,70.18428905715471,131.87496415699098
-115.19640511194513,-65.97414707209944,76.76294234568161,-101.92135198957811
122.31356991908649,-71.7987686344447,65.77095138054858,-330.1647721408352
-25.42770734642463,-79.56835259109647,57.276378394207995,-149.0764175971729
-302.7475362985015,-66.41331728578952,81.98275434679739,88.95709759644751
-197.94497370671783,-62.0678137387977,89.45882667806833,-41.547154421997604
103.18382108143307,-78.16073584671265,64.69618718278042,-302.82095584905346
62.02717390629839,-90.31256364119496,57.750774061151354,-235.8416646378828
-230.25896609708906,-82.99895548578284,75.74437050400137,35.985108964902174
-230.19405072042932,-78.65808258783444,76.35272986208493,31.49813160272332
71.35013245894058,-89.39892614741797,56.34242071945451,-243.68547125417376
132.99938018264453,-93.74036556422358,48.405955163933484,-290.6604471246299
-159.61245322749602,-79.57664153511155,67.47340598295892,-25.683541752920295
-284.3729154515673,-65.95805484167077,83.70930458997077,65.46921590729274
-12.660477352537125,-81.59443937633846,56.775715262770284,-160.26401917680397
156.83582174728465,-91.79998278146265,40.017736930816895,-300.8324367901179
-87.38815842419827,-73.2219355154762,67.52178144046505,-107.8710398560294
-292.81498442012554,-73.2611298428832,77.99501780900495,91.34660155461573
-107.03462186988376,-82.08621734841559,72.86500203649618,-90.98743898866172
136.76858047429073,-79.61446994666024,63.795859004158004,-335.94127676746257
-0.5361007839354993,-77.61852713492921,72.39045570332017,-207.47104339576205
-266.46184907991307,-82.52136982083846,76.15925874300602,73.60328390269984
-188.0005965911022,-81.10962633191582,76.28316646646783,-11.777877453440077
91.53286075531035,-85.98373016018688,74.87808154561398,-304.96785941869604
69.52392040553357,-90.8108346665366,66.47128681023287,-260.980101303544
-220.32295390592304,-81.53860871188346,74.73694979337692,26.278167355827996
-249.13309136272952,-86.47682745162605,73.86847141143025,62.534788396974655
18.02453724042628,-83.06574301069807,78.70404384286084,-235.99872968684465
102.22230131204594,-74.22403139584472,79.06532160796046,-333.47851437571677
-144.3054854777924,-85.92314436153491,67.48132076544182,-37.42852273709933
-292.62421119041613,-82.0661406109206,80.32698718338409,92.95828607781017
-75.75452436938714,-71.840306219456,89.41170208592656,-165.2122516422533
117.0795220943108,-76.67981055679081,76.03700731890527,-341.525563044763
-71.18271573449289,-83.47816649212078,67.99411043658647,-118.62847944189924
-300.18428926424997,-84.48863090686503,80.4567882944749,102.58596225830205
-139.33864029730788,-86.97015344389237,76.27526068417325,-59.59824161543397
120.95464773393272,-89.38517829559122,67.66722710830607,-319.54864476440395
26.404943332820775,-98.61145424133237,57.27546643395296,-190.59536864978722
-267.2473472891502,-93.747382363848,72.77186844635357,89.50347906154084
-235.9282064708405,-74.27873589413139,102.12743981973945,-17.22047493723626
80.39106557457673,-79.64122498004795,72.40132869933305,-292.73795332157175
88.06745009119543,-87.39553776845673,58.152171335753096,-266.70453388377297
-223.9416370351828,-86.90380262335657,90.89071568368611,1.7473145773345435
-296.48168169122295,-77.19053244277688,107.62130112127117,38.818231335047265
-19.016129261687635,-77.19912591262042,89.49592655645397,-222.24298867620897
98.63531238744062,-89.83998223368512,78.63913562946026,-317.2735061447023
-153.39880559766831,-95.67803714652648,87.08621513085241,-59.7712522370635
-318.1074294053137,-93.77095122131088,93.1179516528248,103.26973225871477
-98.45657954786468,-97.21845218368644,87.5442081201039,-118.43933902277534
107.83841337303481,-103.04133596503335,74.6110167929646,-309.3396341212954
-83.24173236118715,-86.89530287928959,88.99591585304555,-145.26127185051365
-327.6485897294017,-77.64770954053256,103.9284875416069,79.95719005781183
-180.47422027730028,-85.01455569463094,89.4758224179525,-43.397391281335544
93.38639543978327,-88.40900187485042,74.01223408581016,-303.43269737611246
6.254674195532136,-88.84540039635606,79.25106541442503,-220.22122669374326
-276.34958328181483,-83.00074378604512,88.91569295326094,58.997529968900196
-245.8052871293573,-85.9835525678068,85.13320643297098,36.03675808389837
37.16697278013629,-82.07627808134627,86.11679895009225,-272.09497713831405
58.8299191498591,-79.0952083127998,82.07485237692724,-289.41168451592085
-212.9580377175349,-83.48136148228015,78.22609269208984,12.825990371212615
-280.59512127800247,-90.8543185690332,76.42680690206976,94.35513990608398
-24.37005550826422,-88.43115871197475,71.90706906348024,-172.99064903832726
95.9322418619223,-66.90575848915776,85.86045878321146,-345.7429868470023
-130.2710159938382,-70.2997543310351,88.9546481688293,-107.00243779521519
-305.03385819101067,-74.73162784373032,85.76871838920366,89.95208684722871
-113.65999490428568,-68.9067937460713,89.43794901979881,-126.8003504693451
112.01662490170834,-65.45818927427148,83.30051482452623,-358.9198286581158
-37.78798297360014,-70.78561762233693,76.27592768024311,-180.3645616210696
-301.9558524219748,-70.32559107221792,90.2422004270732,74.44431027600616
-192.55222414041305,-69.40112902085988,95.25578135471184,-53.53703293615199
93.92377251236431,-80.1229587804901,80.25875724086596,-322.62864300554514
45.62230057846411,-84.4619149956638,73.3158938931988,-253.75380783063474
-234.56250964453133,-89.84082809567413,71.79739383189835,53.54644286555285
-245.33533071296824,-80.6217251583289,86.53446463544935,28.774866697238743
32.20173481727797,-70.37215155739207,96.2703590355171,-295.7394152914428
101.98919141061518,-79.59080528858217,76.653558180669,-324.4423655986249
-168.66249124193362,-80.55689793098655,81.60821475181037,-43.57948873804787
-293.7761414247868,-68.89468890453769,104.65773108640578,35.74289606002537
-34.997003791731714,-72.3294552203764,93.80027883670932,-217.326763927017
133.92844937075117,-79.1161146750287,72.65404935237994,-351.01112232232634
-96.9519288095545,-76.6472163485019,79.1903559907712,-118.47386241854929
-310.72464702214825,-72.29063827247164,93.09007789332946,79.58495893112523
-125.76499867075819,-72.81426660383728,87.47643278051659,-107.01755267765931
130.4848698578137,-88.4071218974489,64.25950947427722,-323.6565081369066
-9.39766105560961,-93.7318316891557,65.06607703992212,-171.4264897633577
-298.27679894403803,-78.13094409206516,100.05686794229852,56.58981618736191
-211.95179718312048,-73.29948885460716,101.65757985644746,-42.697991263311856
83.44356093139635,-76.70051102913496,76.38324210894426,-306.1538387018478
55.133950450358135,-72.25119842259802,74.31774504780567,-274.9528281935512
-242.216681347868,-66.3998241522698,93.30581286085652,1.387055379001946
-273.51960603701036,-71.33837332186104,98.7827233221818,27.603194385336984
14.007222381536556,-77.20059631133874,84.11474294332452,-246.85472092484991
103.55425935163466,-74.21952236498738,74.70173128822003,-326.1673246724035
-169.444718019113,-62.978239591915376,86.98296826984661,-66.46194555873157
-303.8825638298957,-68.39207717919956,86.20137918269069,83.18001183959129
-55.081000215338506,-86.47707565010317,72.40192452565364,-142.50676310230025
128.29530495637593,-84.97353347240939,69.24950404762403,-333.8368743368451
-72.457764036793,-79.081690751485,71.91370351430227,-128.35405638371387
-290.34556861884306,-84.97265082737964,75.11493575008924,103.09967062254378
-135.5546550733961,-90.87581491847529,77.25586164043195,-62.74044409944104
102.84650805324407,-84.5085005251377,88.13294314787701,-344.73550735346276
-1.8149710456559844,-75.18302546187844,86.02181354799826,-235.20422994428745
-259.8848144316717,-83.49613206314322,79.1012995955467,61.37833615376835
-211.09777604241185,-85.0152960663893,87.02933574342974,-5.674018435294315
68.57538734194526,-82.0785815110913,85.12443033535202,-303.76785384989716
77.97356260799909,-91.29781241131346,72.3396064516598,-281.4340297351567
-199.3195831709089,-93.73763282690862,71.37392593345936,19.493792249507766
-249.86711988015924,-97.20889175573397,74.42621794299745,70.11211542500777
7.7594332457655115,-97.22810025511215,84.06003438846444,-225.29147097334805
114.80292201641254,-87.91273763874928,88.22716951653275,-355.23040523787256
-127.6760470204252,-89.35130634161196,70.3410624099104,-58.45468028950032
-254.53811868401408,-86.45423658309304,70.11723975348593,75.8263680670181
-20.173437656569202,-70.36764130278846,74.32865211311284,-195.6501534584666
153.5233476217001,-80.09516802394666,52.12914466891613,-330.17114553077494
-28.367514015129302,-78.59603117695173,57.247276100206435,-146.58377082887145
-274.1034663718334,-70.81339490887703,73.64391393323791,78.20551763720484
-133.4664663040103,-72.81015003646867,66.50858687975312,-56.759125491788026
138.4674595030441,-72.78803158021957,51.52364478285344,-318.20590669356625
65.07303136552817,-77.12736298084842,44.57820691587843,-222.43167910093365
-214.98894960886315,-76.16297513755994,51.818883278131786,62.5145732791712
-203.05139049467093,-72.31441489714983,61.67692290298882,27.134658814127295
86.74241426206304,-78.169316988,50.477147216407694,-256.70657831991474
119.75507479751553,-85.43693556455734,37.19366211094941,-260.12116474184546
-180.3430575970794,-71.76044618826566,59.19798217065689,7.354619167653343
-276.6695899317883,-60.096203627044794,79.33176510305123,61.663659183762434
-10.719709967346901,-67.43475796900424,66.53808189655577,-192.3358032557156
123.65268273414415,-70.31826962228618,60.01900265239441,-321.1673923722477
-112.62782065385728,-70.7823642202393,67.99747124694848,-83.57046723186106
-295.34941620523716,-66.91475914995176,77.00963382765752,91.36069158520522
-75.89414426186114,-71.34139678884445,63.60572631821689,-113.73023512536841
147.15464783064328,-78.14267761546209,48.21854010749401,-316.94950050090915
-19.826712129612517,-77.61358412204265,51.91656211446407,-145.78188144682812
-268.9657280563701,-69.82921653814968,66.86023647148036,85.5643280866333
-157.33513513129557,-73.78261330153055,59.21249704400344,-15.84368425554981
111.36920568795306,-76.69435962286848,49.081703004879856,-281.3920985009213
41.4736595004983,-67.36367349551875,63.60789418115902,-242.4572642086248
-237.541006431665,-71.7642353445633,66.49619976332237,54.03930365909275
-234.42773064925242,-67.91317511731279,62.69951927598699,55.47120747410424
43.66422426047169,-62.05716961467704,60.23499156457868,-241.95788089403058
107.29354532833077,-59.08113076056735,63.97102290060196,-319.8318113746469
-140.0044181865617,-60.54353637992561,70.33540958171582,-66.45738281281075
-251.5733433075906,-65.47602462716212,74.87734753916665,47.65437394877582
-31.073877894555885,-60.61085675244219,77.19767652500079,-196.9045595760707
118.41731559787299,-64.95560790945518,65.33223583717624,-330.15238318125114
-101.03504543899776,-70.78318949841993,65.06212069529965,-90.11396849983439
-309.13082271790915,-75.21337821365398,68.72368948109957,128.84630069001034
-143.96924174397586,-70.36960856874683,81.1510902513329,-76.63583229441682
87.64560619890341,-62.04287495321983,83.77058140632631,-336.2579636363848
-36.899669403483024,-68.83299186007518,74.80765816525488,-179.81389212107246
-300.7570663903774,-75.68672511184977,80.05663762240677,97.51575845353037
-221.66915221141096,-71.83101958239422,86.05745815812557,-2.111773491673279
64.95739341258397,-67.91487955273058,80.2659484550751,-300.593285870393
56.08283453676,-75.18481873926737,68.43138309425836,-262.0153460494835
-222.91250174549674,-74.21302497060043,75.23459760160844,22.658664335308323
-242.14527478060015,-70.84989514911067,79.25282460437056,32.74352077968634
55.77356879307538,-77.20490674046289,67.48360231641905,-258.29656926077524
158.110047349789,-88.38458661367528,50.742271394200685,-326.2004416938727
-105.42558096785622,-86.419332145422,61.07940994914247,-65.90767768817548
-262.667356123665,-71.82473571120873,95.37792177717537,23.151644109119648
-12.91987277809379,-72.33978078474024,84.45208115446087,-222.2525416427401
184.33089288796276,-84.50679283220435,66.17200507183219,-388.0727394920662
-21.512571056324127,-91.80033711272277,73.21843051281249,-176.19781437981604
-249.68791025653445,-73.27740245515236,82.7661677861058,35.57757052878673
-92.57544774134865,-64.51505928499333,69.88750747870614,-113.46670036605742
166.53814933733614,-67.90059061738256,48.62571775431159,-346.08692980404584
58.040518987287875,-54.674964335496774,47.9375821200523,-238.16887036459724
-220.13379525406864,-52.73858678023864,53.19375505088333,48.01379063428347
-157.1503624607484,-60.598018416136945,45.54749182630795,1.6197380082732558
123.03219070752495,-62.05331701706552,30.476271805653663,-267.4062036940381
97.71483267426999,-53.215417406842946,40.08873537835682,-266.0417424282582
-188.39108189499643,-45.89417218940049,54.22848727398472,6.876442077782717
-242.0764621960266,-49.363771504892675,52.40935503568254,70.61606878121766
27.142574651003187,-49.37030709302709,45.52857038713337,-204.13581939152064
147.89860654421716,-36.62723133360649,31.69616520503666,-315.23673411969975
-99.2691312712847,-29.772647293847935,36.7069300975806,-65.41845899398147
-260.00920675235926,-39.08674964294144,39.87266166247906,107.3793565175278
-33.51913303513198,-35.20861818790027,24.054712453192924,-106.53440048109184
170.22986499242992,-24.922178258516595,23.301395776241346,-330.97756278447946
-9.605366164933978,-28.797398303783744,28.397135553902984,-145.58835838286504
-240.26674644758782,-42.498686142260276,19.406242413831638,129.7367000559687
-112.3064939294068,-31.311998508975805,27.40659802430089,-31.67868246686191
147.83944037244333,-18.11195900433307,33.37882364865159,-332.18751221316063
76.34056539277641,-24.893656901968967,26.426796575122665,-236.63200870486676
-204.4198439889717,-34.666344536199,25.401770340880326,73.53411174732602
-180.38163588110015,-34.71935978868231,26.502823892570063,45.603805204964246
88.5357259821787,-18.611298488457372,34.27950464292246,-270.06387271254806
111.26636515903466,-20.511756272058598,33.1760628706682,-290.8149461233862
-157.4446415797508,-31.2409666077022,31.800268308846608,7.844502615511521
-243.9525786609237,-29.827160220155115,38.28598787460544,86.52604839658316
10.901819239577208,-26.91427622947187,39.14724484081461,-190.4919022613655
156.64779762355798,-32.234596381540634,21.429246575217633,-307.2817645011838
-80.50679804856284,-40.021621136456304,20.627494983911134,-45.7616501765495
-279.87684024840416,-37.62326967681486,42.30470963948166,122.72218229672886
-83.6657152228984,-31.308913317089424,43.54104983400961,-94.70132923719149
137.73060824471148,-36.15775728237359,33.52023537178293,-308.33924588332627
-16.495764592319556,-46.368634711769275,30.885811261985943,-130.24174473704426
-289.19612679227583,-39.55914291336384,54.1418410892168,110.42215719094536
-183.1247805183207,-32.28307314870495,54.78800567342474,-9.918236261506188
101.13369375297316,-43.49091479650116,30.529210150612133,-257.7198994714637
39.60611752793904,-47.82909989267889,27.497888214743043,-182.50667725154267
-256.9127154628449,-42.95433465627578,47.95048046240724,90.72728334122853
-252.04402364863554,-47.40333444817357,52.45953030486068,79.75394796410804
16.279608857248007,-53.2588598007078,38.32579030206123,-175.19773526730236
51.39891118523715,-66.38737359748319,32.84437345877851,-192.18227152564978
-206.0345961075397,-60.036456385619736,46.53862515053075,51.613109815845384
-315.83994546714973,-41.53495861215391,68.14629396281143,112.37749565468563
-49.32859503744857,-60.5927102979656,46.07219733671894,-114.99585605795376
112.2988824287703,-79.58686343719579,30.782169630365473,-243.59563103550067
-127.60501625723192,-66.86570379441078,57.32671999782459,-49.026423167556885
-329.4768610569123,-60.55343086677895,60.01360744956974,157.300217836576
-147.50558698239416,-64.49441898573944,50.98617228144858,-16.742096329497322
81.26574469019037,-69.83764918932106,52.64221544298332,-261.31361310112806
-63.47672564388801,-73.70221658194944,62.205584879771784,-122.49424181487672
-334.6129966785925,-76.16407227305226,68.41291724399059,157.48054365574828
-245.91887785688448,-75.72105020833231,63.219536610912776,72.49860003028165
39.01825234183966,-74.2421507835953,51.597236527879076,-210.69486576033654
-3.561595281379005,-68.33132590467528,56.833097646505365,-179.9039534368106
-293.3509936912887,-61.49452336687846,61.72184602829233,115.85262732811105
-335.4255562434396,-57.64653081170313,68.15802145203922,145.21727977017122
-75.74350018877104,-42.51878546121995,71.51441481313083,-150.97423410045312
13.970494563607982,-39.534675667879334,61.63395386348312,-229.53152219414613
-228.92151684766748,-51.23622992866447,53.939450875400226,54.831275065805485
-351.75050452136287,-62.999642571777954,58.51578870944569,185.97577161863126
-115.44718873103571,-64.00462222390934,64.66844671035614,-78.87357207237875
76.69134368291553,-70.80014339775605,49.80906443651284,-250.02570209467297
-118.51963511213741,-71.2559019604532,50.52051608199868,-41.89330662606574
-359.42557913538934,-47.861780949269445,73.66034984059146,152.70645613071434
-193.49136614602452,-55.22981681071944,71.40655220550805,-15.19290360111713
76.44761610697579,-71.80111254435259,55.01267999128507,-259.4518947379153
-24.08715436080186,-82.49462699487893,43.6279240305658,-121.01345959190141
-304.420081415665,-78.60927136945534,60.08610951518485,143.60437780552547
-256.1348377910824,-67.43249938946468,80.71373649957877,42.29221463864185
44.86812019803221,-75.23739419652412,63.18779826694177,-239.45191433054654
58.466152074152674,-76.65093681598215,54.262482425500224,-235.10325514245173
-223.94891588736667,-69.32662170380843,67.93501866189253,34.79294223472865
-281.87082555155524,-69.38196844272359,76.83257357410265,79.08740762078403
-1.980371761544822,-79.15729091548599,60.16446710092349,-180.29556940614512
110.56468919022223,-84.96620552149867,49.76853838260595,-275.8106749204564
-145.79026957604063,-77.62676431116415,67.45111977212517,-41.88992266864199
-301.0937518814757,-77.66993708363304,71.54939983548766,116.38145738200079
-78.28618680537738,-82.09110234646981,63.065856222623815,-102.16391567349118
134.02663005055712,-93.28393024734119,42.3280536497407,-279.9212134179974
-50.473682076943376,-88.85751426945276,55.730440123311084,-112.29086548567692
-302.172519896919,-67.89743883899642,88.19812647999838,76.98244671339805
-152.20709585801708,-69.89386363341838,74.22912866983154,-54.289736777870985
125.84822292424727,-69.87668356912621,61.16342437056654,-326.13864807560554
46.5009868355255,-63.480920558665574,65.88806378959852,-255.27457693550414
-230.69251126916325,-67.39920793267115,73.61796343457794,29.215036494816367
-190.89008168985038,-77.70781120734806,69.82466418020164,1.7513803413094624
94.26417643666633,-78.19264004845948,62.035854579764106,-287.90786859808344
113.6159726653691,-74.23480895263366,65.31949110764894,-318.14344290925527
-154.7627637973649,-78.13284064102815,64.88760383992177,-26.764758652417154
-228.53051372415706,-91.36384732268435,60.16772546807014,71.5027776872134
26.381097504998476,-94.79624683921269,58.11557667451642,-195.06416562629053
146.67096010228417,-83.52224555503393,69.1564840428566,-354.4144453815739
-79.49584845255656,-92.7765464210582,72.73257286092205,-112.36019022033435
-252.5369905950452,-101.1156860654035,73.44592039481137,77.81630512727133
-60.13206742216011,-90.41069021496544,78.07352412118767,-145.55719855566971
169.95539287319457,-82.56707838026009,69.00966950850383,-379.77976945342033
28.29876362571585,-92.77532790819767,59.06905928550111,-200.51881824321734
-232.50763335649862,-96.2196860373009,72.07156934717436,55.4951096350672
-125.81245277387157,-94.80498813759871,75.63371896153504,-67.03681137826432
157.8831549983789,-100.64725349795378,64.03237515895732,-343.54696947743383
105.23549994244543,-105.47792847091463,62.92529866295556,-281.34316995753915
-175.01818086328672,-116.22623093461499,59.465369085589494,33.8768568496824
-186.4817354694279,-98.21687492080466,71.76920336441873,8.243194371762737
86.95170513959994,-83.57079307739345,79.07725761953404,-310.24857206002906
164.59338410851998,-102.06630627668925,57.99893615280402,-337.60570834598525
-101.15277566999316,-107.91410542143734,61.496338320177934,-55.48383240601342
-232.6822106860387,-98.2006485048959,82.1344551382974,36.98179960884739
19.082097265739822,-101.14781890229867,70.7840188994093,-207.9411929578988
191.92188667169617,-115.25838059408731,49.15168007357889,-339.45027638147735
-41.83868588085426,-110.3491588055826,65.44618163004401,-125.17395868398147
-256.0647583910004,-103.06398069983486,85.19781632104603,59.48900008144668
-71.34067583173564,-105.05017415152457,77.6466821451166,-121.90174630905959
177.2931995518297,-122.10608350391591,53.46547718435933,-327.36816737042454
40.320423471919824,-125.96705465039184,55.24102403075521,-181.27657899202126
-237.36886577395657,-105.96882363848349,77.55579948348677,56.90180917453353
-161.61977143935397,-111.87808983968908,80.6314152476883,-26.091474015290576
127.01583759802595,-130.41973019315273,61.18969465297281,-282.8310479579206
97.84789335433453,-120.60320975179822,63.980344975879525,-264.39383402826627
-202.184524046573,-104.49518127875946,85.4286754663676,2.3336946335533626
-223.97115836710836,-111.38144210902323,78.24741971475594,45.14523810761067
60.819256049592965,-114.3145432983428,62.110713758537294,-225.59574737161654
136.90777480685625,-111.82403637069622,63.42420467859611,-311.6119973547045
-124.04537554466974,-117.6685682900256,72.80340151818372,-46.41320594074811
-259.8507422592453,-110.39020122873579,77.85986138175647,83.64604969879369
-31.484739913657723,-101.14037301115219,73.76480003925619,-159.72223095830176
155.99738765958074,-103.53987754580125,62.33357924308022,-335.9910123303864
-38.1720075443008,-101.54934329743611,60.637156177786224,-125.95356442888784
-267.18772988844995,-100.60448986535397,74.5797250813956,90.87041787873076
-112.2772991010518,-107.97198841759102,74.28273945742616,-69.13464401548029
127.30977289814335,-103.55427868121687,75.90663377796237,-332.42620404391164
16.88530112544209,-103.01312643268565,75.29287160691656,-213.2453478845422
-244.9928835382356,-103.02997205807267,72.24758957302015,73.54204123614997
-189.87756308062276,-97.71398957300332,73.33426030565016,8.37674232196754
78.75540920252524,-91.84658461275029,71.92451807259192,-281.03603156219646
76.95351149589818,-92.7686344982781,71.81030190575804,-278.1965636990306
-178.10415910014905,-104.48320287289962,68.42102743248842,10.58950425552237
-226.75423167184022,-109.41634126493952,66.61084785199147,69.99290815003899
23.74044632596714,-108.44919411555196,66.54623979853491,-199.0637900409811
119.57358268048945,-102.0550368666963,68.81845424549462,-311.03894761934606
-118.44781453637412,-107.89047090703393,53.8460181510576,-21.638145285933167
-267.68290139359476,-114.27715186411174,52.60166845281115,145.50704649957248
-76.87945946023622,-97.7093718862799,75.80735308151131,-117.68962384497965
122.84976971549489,-101.57920077773292,64.33852440943784,-305.9257557498772
-52.6401097314154,-99.59098075534605,65.06762739574546,-120.76613506469981
-297.5053629940429,-91.31821378543093,74.64101865111121,116.39857854344011
-167.26444447869477,-104.54046074793968,69.98124939534452,-4.111787886970344
90.84264005522165,-123.06978351281873,65.76077073563715,-258.635202116826
13.063924606701462,-130.3373865095345,61.75473628891529,-161.89312757667142
-273.6783071441618,-122.0471603033349,69.00652642078249,124.79246809304136
-249.40736900463529,-116.2435509673838,78.87776917239337,74.7269229195168
35.832415628036586,-118.68179122977581,69.62215040163643,-210.64598047644472
61.199477820115376,-118.62702088758132,52.908140260176204,-204.38902775637604
-223.54479758848456,-104.46641829582337,76.83698430341077,42.4185663378074
-310.66318897097204,-95.24313335932636,94.04415819852159,94.52041119613793
-37.05726769765679,-105.02220250385571,72.4675295964854,-148.29041941745334
99.44257981188687,-106.928781705698,62.533020205863444,-273.2795047124646
-138.0552697620873,-101.53185217837613,69.0579613336141,-35.784590663479236
-328.2512243500482,-100.59523852455044,75.13148895097959,155.20440787242933
-115.94952957327123,-103.55980278318432,70.49763368863371,-60.866875265033
81.38024679213282,-114.26806699729786,63.40619622933607,-250.26209791567402
-90.32672328037135,-120.57109350883363,62.247601353875375,-59.26558751093792
-302.21694851389447,-113.27307887875028,71.83341391246466,143.2507439617796
-192.80489077138574,-117.22546226010361,61.26294080358694,50.07519116401969
67.33271349895462,-114.76949641449474,55.01519237116342,-218.02620794165065
-4.767601512699639,-92.75330999781175,80.70452099376848,-208.44014148872142
-267.8282621149502,-97.15078391009017,74.82495347098141,88.52073764696422
-276.55335095882737,-96.22756615129444,76.90030857395321,93.03398210312292
-1.782881081089418,-92.32465463421005,73.94771243341991,-198.41827187975534
60.84839786744193,-94.71092685496112,65.53697915934264,-246.93629011378513
-211.00494569789487,-95.19132191317274,72.91531288833865,30.000980529850978
-322.15115844852403,-89.38305634838544,80.8653816414511,128.91738144989918
-77.36889804915243,-87.93715507352194,77.80571104293496,-128.36933037143535
87.20252727345316,-96.68163521187033,65.90460356820101,-274.46631016981127
-124.85283470063608,-101.0476457481773,70.49484370581965,-53.170065739553465
-332.82059619087113,-102.06108021730199,76.58948482655698,158.26088943347173
-169.5816782060401,-85.98808768470212,85.10208650054716,-45.59197589497517
66.84986057929989,-77.17105363566904,83.34090202507824,-301.9614913113638
-44.925802483587894,-89.81863817759728,69.01997335543486,-144.1531322258303
-310.2217789259558,-86.42583370546463,82.03089005106102,111.6177444359101
-236.18983406739977,-83.5481589478584,88.50991656820668,17.171691470770927
56.45718451373966,-89.39037212175765,69.0964308686319,-253.28144861720355
39.43274509785893,-95.68370030164053,62.633292110049624,-217.44948960474443
-246.88203482323487,-92.269557007343,74.81407311651684,62.496157565559066
-276.6235374901339,-84.02275485750575,79.32648150387048,79.2553653023713
8.753652486837737,-97.69754101573528,64.65806766159109,-187.14100443941297
102.32052049233518,-108.87281984631319,45.50553040539257,-240.81844651901707
-159.11363889898064,-98.11719953903354,52.43364371132063,17.57444712687626
-323.36219450059394,-82.05812818541683,92.58899962702971,101.3306662626164
-88.76689748495725,-90.87270382671889,88.5076786748219,-135.43062665834844
106.64010162458939,-93.76108131694211,69.74817885017735,-305.1512808375001
-93.00639552808596,-89.33231403025631,74.37763748412594,-103.71360138434757
-313.950380173655,-84.47987161262343,82.9583007448596,112.3220752647246
-150.97899424695555,-87.44914904362864,74.87413498497288,-43.96243821292787
112.99992959145973,-97.67721568154678,54.54363367681294,-278.6209697297262
1.5663793672228143,-91.7726710174317,64.1309312664406,-182.74759613989266
-279.63920481725563,-79.58712856901003,83.02644404817764,71.80649923068754
-215.43961542216584,-83.05681759818253,72.90591494538675,25.83135804532074
76.3201616315581,-100.1374756058859,52.94941617859075,-234.30183972567963
72.19948086450589,-89.83482472537675,60.11983890631038,-251.84230949992087
-220.3104618773357,-67.86516012854712,87.44306020845175,-9.266189734907897
-273.0396260894957,-76.21522413263428,84.17519488145207,59.94721049978746
0.4155356347171159,-84.5249462418068,70.93024903410121,-200.4765337915253
106.992958257498,-90.33295390811139,65.91163747811908,-300.3693343926588
-145.58268919772866,-92.26446202389825,71.91934734830038,-40.27819290725088
-296.1335141642071,-92.79407440305033,71.14745225197642,123.01482072584648
-82.17295260831065,-91.35965025361476,69.96215071927391,-104.98469653142
107.35921555072068,-84.9793215850428,72.13947356941749,-317.1836692258446
-65.23557662979876,-87.87031517886219,71.91670956480388,-129.6246545488404
-297.5327540652124,-98.63945916139211,69.29032816772907,132.5422936876859
-178.15988224054112,-100.14974572258352,69.46678124525539,5.361007084832487
74.70777146838597,-86.46062541733309,77.39761837887485,-291.63144557321345
-5.8920978136537405,-81.52791141773675,80.18144828214044,-214.45853483138757
-278.97530153532097,-97.64468878604042,73.32152044895436,103.84376949599677
-262.7192907636212,-96.23018228253986,77.37063795425541,77.26667124485401
8.431541682917393,-86.4654492828579,82.24732955588391,-230.3107732543501
48.204194157179515,-91.29262776260809,68.95721471567647,-242.75551444654445
-222.352182719656,-90.79855472262588,74.36805167781833,36.01536372158131
-304.6863162834123,-86.94576738916136,86.20822257819982,97.6991832916193
-31.44947578981994,-85.00761778480434,71.45702404443063,-167.02415513714507
129.40604866100787,-85.45392375117265,49.28412057315288,-294.6744714905181
-85.64362727726264,-86.90345193105739,48.9009346311723,-62.3542144778368
-274.59837560580496,-104.52677723869793,78.37592676594107,94.0977635747586
-81.19470693081168,-120.67002299568588,92.33046683137522,-129.24851428767766
151.9566331145152,-126.97851947941277,80.8804308046372,-351.5462660075103
0.20891959300269555,-131.82158727629502,81.64143985940504,-186.86309227258502
-270.95310923379316,-125.9922443607868,107.80254745859958,47.05422839952414
-173.46539496511082,-127.01422154574296,119.69794353810597,-80.50881844625289
100.99781175659857,-140.17770903055046,106.16403755379561,-337.85751468863594
30.858546972507973,-146.47649603578546,112.35875288344751,-270.4533832155144
-268.4732434425613,-144.04058821830466,134.78196018764783,3.6445683605246018
-276.88725498385816,-154.33894963478303,144.2425342245467,1.2974864786208862
-5.241131481838419,-164.59076345298692,133.02642372320915,-259.82092571097166
40.47745193406989,-164.05278471720683,128.97291618545412,-301.0964469831614
-249.2165144468411,-154.2806135589256,153.4318983662581,-46.81233955102118
-376.640914091543,-150.42411339161845,174.5748904499563,44.557899769978135
-116.69322745838849,-175.34005385826893,154.46205864936093,-175.39325918940676
34.52353554785169,-185.06099452939748,141.58508837279666,-304.50250141511407
-219.62085575513052,-164.53473767921992,183.21555959220623,-130.6452807235114
-425.0319836035859,-159.20157755625274,200.0451031256743,51.86256970911873
-238.28515780481794,-165.09588211070053,184.66869807891575,-113.1391329792268
0.7521658411972277,-168.00209696921112,181.90007963927675,-361.64477985723926
-125.87055654589155,-172.35147541611377,183.6747615287485,-226.28448186035308
-389.2903148291753,-171.88304663495433,188.90962781140357,45.20899766738106
-301.97922608982054,-172.91190507655975,188.55077351803874,-46.89163198257497
-16.992491998022224,-178.2681424228734,173.02771803004373,-317.2869142638739
-49.12900272474271,-178.22055557146106,177.7487898377389,-292.3371797358662
-335.78164885291534,-172.36872463935845,191.36889750988698,-16.70921136514056
-364.02044251722725,-175.8397185771478,190.02847663559365,18.799417132031895
-96.99065738072828,-168.03696920323014,189.9615679247986,-273.01142715946986
-6.302210430166031,-156.75820015268084,180.03909791422436,-358.640934351213
-251.22343838120452,-165.04290882036378,178.19626283334367,-86.34430996098254
-386.2587284886596,-162.15600024783495,185.715214207632,41.192095973320335
-150.18544091329275,-152.41180328683467,174.33770644165153,-196.21118574738705
39.109206448202876,-146.51276916360285,156.54344074799153,-367.78962419984134
-155.59272295629017,-146.9650680012621,149.46613299639233,-144.60126960430281
-368.4951033657384,-141.13504769796526,153.65923257466068,70.88539235566071
-217.48162279110443,-134.83004043368706,154.8314193580954,-97.96108017733498
18.888916731475117,-136.758352628324,144.25949711122263,-328.6958826134526
-82.3831808540404,-137.19819784079903,131.40827102658662,-194.08475781785725
-364.02271418443047,-127.93573324267743,137.65382666668697,88.43140268568793
-333.01183021232913,-106.50731171978707,160.2190931467197,-5.802468235142864
-49.594822337530324,-102.59283121508777,149.53338329789554,-291.0377619672469
-34.73745784123085,-109.85686835909257,131.3916614512519,-265.26357781244684
-318.4673695401842,-108.87937649588923,142.1402262334151,16.576462921205344
-384.6774180863801,-104.53767661245874,147.63707285863518,73.32695279977261
-102.6891333537083,-116.74886533254154,123.19448183533206,-170.9340393278092
5.1541609123639835,-125.48866489607641,122.06767992398295,-277.82015004695864
-247.38051282155945,-115.21783729437902,134.8791065911579,-40.39496365726478
-395.5929806397802,-111.84248845264997,135.07493040380555,115.57571855529551
-177.58180075714392,-118.21941919891502,131.45608031677813,-106.13388059610337
25.059597435824926,-119.64926008266494,115.0947071784823,-289.48734048616745
-152.919026773778,-101.54620445931883,122.18213235746146,-126.27303965899891
-384.6348754971359,-91.80719211841493,133.71826652377888,91.78589668093475
-244.38198575558584,-97.22203946730549,121.21099846132212,-29.486206535027026
18.21826009884026,-98.6677650490169,114.50624966470944,-296.43644505697927
-79.90953313612566,-94.22614138446943,128.98955365096754,-223.55457768446811
-360.2036442060517,-91.79494397067,135.26715695635323,62.48906676478967
-319.31769047083463,-103.07379709157087,123.70467507691122,50.14392874900216
-48.36878599256977,-105.99863410024768,112.99577160589737,-216.64231133828764
-22.765956165166774,-102.52534835079788,106.05113762173629,-232.72909493269594
-289.7746702314599,-102.52406661762085,120.70837036357356,24.078270514028446
-367.7234589460309,-108.91953804300321,115.00916929879516,123.7520979088665
-128.3963400465827,-109.9087917638571,110.03926975242724,-122.066599587126
-27.224382049889492,-89.85297207952289,135.67890567106753,-296.6450452891326
-250.13959386154292,-90.80528952116643,135.84527504920652,-57.36207726354835
-418.0650814716771,-93.7724757851231,132.6582713592952,131.1872384072452
-220.8967184005566,-84.0445516770494,134.84097441902662,-91.6734857683463
4.291004364579954,-83.03892322099917,125.76308100492615,-315.5778987214046
-126.59857966119698,-96.66905742799746,117.74872471099876,-149.1944140677865
-361.98688947867595,-98.16012477267634,126.35784113394014,86.93956791526873
-265.3257991310967,-84.05836242303597,142.070423951001,-58.52897674182711
13.346763806574499,-79.65320183872366,131.401174849976,-339.0738408747951
-24.933129953585063,-80.57960051571106,121.0032110642269,-276.53244649681676
-290.02270617866174,-89.86132390171932,116.57862679028854,23.287039085797176
-281.7415867085329,-86.0067190027386,121.10705105932672,2.4989599042684834
-2.7300399191276603,-72.82933828521485,128.38863603487954,-320.8360177398587
71.75969527570238,-76.68119413164676,111.67204449035897,-364.34362810969566
-187.29901903057197,-78.13231236385677,108.34826012324592,-78.96326113917388
-310.3814999869817,-73.78692003160326,126.0774755499564,14.232382880810405
-72.73796253690489,-76.2464243456783,121.55875554274995,-229.60242922222662
91.39211823319829,-85.47587455395242,98.93818185669107,-353.3935263984305
-121.01646701358902,-87.39635454991868,100.62703533851332,-127.70804347738184
-341.6178693883549,-78.15586294485759,121.37024999263988,60.36049078867489
-177.50377497909133,-74.7785294161179,120.60313021017565,-116.48435783051151
70.93262057817401,-96.71778561824456,91.04716479621348,-307.37293095625364
-66.13155917883464,-105.46458082503257,95.24345259211894,-162.43295983031493
-348.6951741725724,-74.24105790883607,125.82348582490695,56.13943366331033
-262.32003921029286,-60.11748886881806,111.90054971038809,-18.948814134192748
30.05787474042837,-78.15708847533239,80.83449666325326,-256.7808961286711
10.835769368988853,-78.6013224530243,78.2070611601298,-230.58798532036744
-278.6826502327828,-64.93744184626007,92.80064120374901,40.404802151999384
-309.7745098592414,-74.26150788302806,95.89800203107269,74.39345019354552
-30.88851681938192,-72.31840323717388,84.11049244866781,-202.32563971400398
53.05240819100853,-69.33536439868861,75.68752636618055,-277.6146798858002
-204.94291118093858,-74.69113515102568,89.95282889196703,-25.735042913664522
-335.75919071336534,-73.76509888142189,98.39518084142324,96.87447384227893
-98.33475581953195,-78.18486168058611,89.43297967199949,-136.37895377975968
80.84998944564217,-81.56186936333692,79.46014790678615,-305.9562958360533
-119.60383886839924,-74.69258316834578,83.59523635979606,-104.46123002355375
-348.0718771383748,-68.37834341596079,95.5729638957748,111.75566886326169
-185.1981450925611,-76.72047251214619,88.45329783731464,-42.39744154202161
37.980922961649306,-69.37505349500775,89.57533638477783,-289.2552256757888
-67.79349661078977,-70.79039715908064,86.98531804096002,-169.65725524793328
-299.7707236759803,-83.49953588158546,86.40216137320171,89.50285912741505
-259.1213450828661,-76.71865098375277,99.69626589919999,14.3058243521779
13.388615964207768,-73.78235554047517,95.83535954810833,-272.19169815805077
25.297509404291173,-81.53734823767564,82.06981790635352,-251.66294892009444
-244.54319572423694,-86.41712107563858,82.09067604063493,41.09900276305268
-302.12700389908304,-87.93390679028899,85.15221948403575,97.79990886161143
-41.87379147877719,-81.10895648795488,81.65885667986225,-179.16288775613359
48.48807155399231,-66.41922976532778,92.68437046397881,-308.92320551058384
-175.03310468712982,-77.13972134442182,80.62621643325417,-37.302263777834085
-329.3866605839014,-86.45600859592142,82.80039271697426,130.63875486019225
-133.30883696088208,-70.37481443135262,100.15833641771728,-126.13687736901998
83.84041022225338,-75.70639876029071,78.45679346907838,-311.46586870232545
-87.49280738820282,-79.57527584872119,76.76012106101078,-121.58556848014057
-322.37156764123614,-73.25807418982778,90.22301692351422,98.52458392799441
-187.41678271179052,-73.79291079865699,88.43871070889217,-42.14753940373656
75.30080148312588,-76.70297154191223,80.76088934181223,-306.1950651949686
-14.321054853044009,-77.63237568059711,84.01417710421246,-215.97359735821001
-294.6124026341054,-76.18025118703368,92.22767892792142,66.91012121227028
-259.98663409651937,-73.79018336941441,96.26992630447192,19.93972198794455
27.684480815488094,-78.17825577831104,83.13065306556625,-258.8217060712606
64.01846624669824,-90.32918879113394,67.89059867784879,-258.2778742334147
-226.69778136610628,-80.56456625448892,94.73918853308506,-7.679919565271113
-319.2775552966418,-65.48240621144065,117.31402591372799,35.20448645529131
-43.650674710670415,-77.69783718382419,91.86576209228454,-200.2206202714734
88.80142287209085,-78.1438559535362,85.31982936194763,-328.736376878695
-160.79700357965612,-66.89646374321332,107.40861424849223,-113.76414210290837
-333.7195532609539,-71.32539134679718,107.66086802139284,74.32773746294201
-123.21326620083006,-80.1447281609718,95.7343759426249,-120.89498181448938
102.65517064520914,-81.08792501479783,83.26801821450303,-337.30446768140513
-51.55533172233053,-78.11802881472029,84.52049246234598,-176.7233977376401
-307.2600996523442,-73.74950269223179,100.45532675507704,62.191098423802075
-194.36901707419534,-80.1426448701378,90.8658589660854,-34.8800443376963
80.85242011982007,-88.91575216352022,80.72143720418282,-303.06701324212196
15.80887535417508,-70.80370432255938,101.54244190169365,-288.4141485046609
-264.45788679543017,-62.51171050649362,112.22433010698435,-15.541989734656173
-257.770934674424,-69.39713728333156,106.02536012267731,-5.2162109693631615
17.374260546146235,-73.79363090748348,101.61736307843059,-288.0388320746639
64.96879651811797,-72.28084100317717,103.89949416943794,-344.73614115043995
-201.10730356624035,-75.19968653352934,109.83326667022305,-69.29992144444984
-302.99659381567056,-76.21951719407537,110.02464218143574,40.2703566237482
-58.39452964855315,-70.38181085810658,105.4814207485962,-217.08720033515556
105.26433799821037,-76.19768161972873,90.15494645139835,-357.50167453452656
-104.16549546796004,-78.60846753225199,86.45881293903541,-123.85910445862976
-298.82365140737136,-85.96590773924815,84.2777225920326,94.56130522496991
-133.36657507962207,-77.21312484283351,88.42330351991401,-97.52602359349612
90.38526544035386,-64.00359496279063,93.48408951715743,-357.20964272809124
-31.93449847519288,-70.30769741333789,88.4118615576215,-211.30360438301813
-292.36437866229915,-67.88518254337949,94.62988532319913,53.575849803109556
-219.8509737994022,-62.564863142052346,102.09397218721372,-43.016037451162084
50.01255048020486,-64.99658821970891,96.3010293070608,-318.85104414098896
31.599533506666972,-74.21581242128359,82.5396888894292,-264.7535693418786
-250.18319856932695,-75.68082741667035,90.3510138050845,22.683819538303723
-288.37500980906265,-65.97017132269826,101.20428640325855,34.71782523666304
-14.894994531643095,-68.42051044275861,93.81877037712569,-241.78894356142712
82.21626375416326,-83.99059379901439,71.73467040561854,-290.1536919498653
-178.21875694710297,-83.48447769482074,79.66955301892361,-27.296189495698595
-338.27091520724406,-63.51608089524061,112.52179386790341,63.71297264981018
-97.29303067097662,-69.395621277436,98.7115441918577,-162.56065931419786
91.58626673152382,-69.35484001316041,83.3663848702141,-334.28380343727207
-113.94475865825757,-59.06874625006616,91.39975530321549,-137.67470181761314
