TP9,AF7,AF8,TP10
-0.48828125,0.0,-0.48828125,0.0
0.48828125,0.0,-3.90625,0.0
22.94921875,-6.34765625,26.3671875,-32.2265625
-59.5703125,12.6953125,-74.70703125,70.3125
326.66015625,-71.77734375,289.0625,-396.484375
696.77734375,-198.2421875,477.05078125,-1000.0
490.234375,-188.96484375,57.12890625,-992.1875
317.87109375,-162.109375,87.890625,-986.81640625
-455.078125,-151.3671875,111.328125,-1000.0
-1000.0,-157.2265625,92.7734375,-1000.0
-980.46875,-153.3203125,95.703125,-1000.0
-992.1875,-155.76171875,94.23828125,-1000.0
-1000.0,-150.390625,96.19140625,-1000.0
-999.0234375,-136.23046875,101.5625,-1000.0
-1000.0,-140.625,98.14453125,-1000.0
-996.09375,-145.5078125,96.19140625,-1000.0
-974.609375,-145.5078125,94.7265625,-1000.0
-985.3515625,-131.34765625,109.375,-1000.0
-1000.0,-107.91015625,137.20703125,-1000.0
-970.703125,-113.76953125,126.953125,-1000.0
-701.171875,-114.2578125,124.0234375,-1000.0
-748.53515625,-101.5625,136.71875,-1000.0
-1000.0,-104.00390625,126.46484375,-1000.0
-829.58984375,-101.5625,120.60546875,-1000.0
-177.734375,-104.98046875,121.09375,-1000.0
-24.4140625,-110.83984375,120.1171875,-1000.0
-523.4375,-118.65234375,104.4921875,-1000.0
-757.8125,-116.2109375,102.05078125,-1000.0
-336.9140625,-102.5390625,121.58203125,-1000.0
-14.16015625,-100.09765625,128.41796875,-1000.0
-361.328125,-100.09765625,122.0703125,-1000.0
-606.93359375,-98.14453125,117.1875,-1000.0
-176.26953125,-95.703125,112.3046875,-1000.0
298.828125,-91.796875,114.2578125,-1000.0
56.640625,-107.91015625,93.26171875,-1000.0
-384.765625,-108.88671875,77.1484375,-1000.0
-187.01171875,-89.35546875,93.26171875,-1000.0
289.0625,-93.26171875,93.26171875,-1000.0
155.2734375,-94.7265625,91.30859375,-1000.0
-426.7578125,-92.28515625,92.28515625,-1000.0
-449.21875,-91.30859375,87.890625,-1000.0
40.0390625,-92.7734375,82.03125,-1000.0
31.73828125,-105.46875,70.3125,-1000.0
-536.1328125,-100.5859375,74.21875,-1000.0
-784.66796875,-85.9375,93.26171875,-1000.0
-373.53515625,-91.796875,91.30859375,-1000.0
-99.609375,-96.6796875,85.9375,-1000.0
-506.34765625,-98.6328125,86.42578125,-1000.0
-900.390625,-93.26171875,91.796875,-1000.0
-574.70703125,-101.07421875,85.44921875,-1000.0
-129.8828125,-100.09765625,79.58984375,-1000.0
-375.9765625,-89.35546875,84.9609375,-1000.0
-846.19140625,-90.8203125,85.44921875,-1000.0
-686.03515625,-94.23828125,81.0546875,-1000.0
-182.12890625,-89.35546875,85.9375,-1000.0
-221.6796875,-85.44921875,88.8671875,-1000.0
-698.73046875,-80.078125,98.14453125,-1000.0
-708.984375,-89.35546875,97.65625,-1000.0
-193.84765625,-96.6796875,93.26171875,-1000.0
-19.53125,-76.171875,111.328125,-1000.0
-457.51953125,-79.58984375,104.00390625,-1000.0
-686.03515625,-91.30859375,93.75,-1000.0
-248.046875,-88.37890625,99.609375,-1000.0
72.265625,-80.56640625,106.93359375,-1000.0
-278.80859375,-82.51953125,105.46875,-1000.0
-630.859375,-98.14453125,85.9375,-1000.0
-327.1484375,-93.26171875,97.65625,-1000.0
102.05078125,-79.1015625,114.74609375,-1000.0
-115.234375,-83.984375,103.02734375,-1000.0
-580.56640625,-93.75,96.6796875,-1000.0
-423.33984375,-91.796875,104.00390625,-1000.0
62.5,-85.44921875,112.79296875,-1000.0
-5.37109375,-93.75,107.91015625,-1000.0
-506.34765625,-100.09765625,106.93359375,-1000.0
-578.125,-91.30859375,119.140625,-1000.0
-166.9921875,-90.8203125,116.69921875,-1000.0
-98.14453125,-85.44921875,115.234375,-1000.0
-574.70703125,-82.03125,121.58203125,-1000.0
-817.87109375,-83.0078125,121.58203125,-999.0234375
-448.2421875,-77.1484375,120.60546875,-1000.0
-188.4765625,-79.58984375,110.83984375,-1000.0
-578.125,-86.9140625,100.5859375,-1000.0
-982.91015625,-69.82421875,118.1640625,-1000.0
-735.3515625,-63.4765625,116.2109375,-1000.0
-329.1015625,-77.1484375,104.4921875,-1000.0
-507.8125,-67.3828125,106.4453125,-1000.0
-958.49609375,-60.05859375,110.83984375,-1000.0
-832.51953125,-69.3359375,110.3515625,-1000.0
-385.7421875,-77.63671875,98.14453125,-1000.0
-414.55078125,-82.03125,90.8203125,-1000.0
-807.6171875,-78.61328125,85.44921875,-1000.0
-878.90625,-72.75390625,81.54296875,-1000.0
-410.64453125,-82.03125,68.359375,-1000.0
-194.82421875,-77.1484375,73.2421875,-1000.0
-601.5625,-62.01171875,88.8671875,-1000.0
-854.98046875,-73.73046875,76.171875,-1000.0
-472.65625,-78.61328125,70.3125,-1000.0
-108.88671875,-69.82421875,76.171875,-1000.0
-395.01953125,-66.89453125,75.1953125,-1000.0
-780.2734375,-71.2890625,74.70703125,-1000.0
-524.4140625,-74.70703125,76.171875,-1000.0
-80.078125,-76.66015625,75.68359375,-1000.0
-219.23828125,-76.66015625,73.2421875,-1000.0
-678.22265625,-81.0546875,75.1953125,-1000.0
-652.83203125,-83.0078125,79.1015625,-1000.0
-242.67578125,-63.96484375,94.7265625,-1000.0
-243.65234375,-57.6171875,100.09765625,-1000.0
-698.73046875,-72.265625,88.37890625,-1000.0
-789.0625,-70.80078125,93.26171875,-985.83984375
-276.85546875,-61.03515625,105.46875,-979.4921875
-1.953125,-69.82421875,99.609375,-1000.0
-407.2265625,-77.63671875,94.7265625,-996.58203125
-708.49609375,-73.73046875,101.07421875,-819.82421875
-303.22265625,-73.73046875,98.6328125,-780.76171875
175.78125,-73.2421875,101.5625,-970.21484375
31.73828125,-86.9140625,87.40234375,-1000.0
-305.6640625,-85.9375,87.890625,-797.36328125
28.3203125,-64.453125,109.86328125,-655.76171875
540.0390625,-77.1484375,93.26171875,-857.91015625
475.5859375,-84.47265625,89.84375,-1000.0
279.78515625,-74.21875,109.375,-750.9765625
588.8671875,-69.3359375,115.234375,-447.265625
959.47265625,-75.1953125,103.02734375,-680.17578125
979.00390625,-77.1484375,95.21484375,-965.8203125
870.60546875,-72.75390625,108.3984375,-729.4921875
873.046875,-70.80078125,117.1875,-333.984375
977.05078125,-76.171875,106.93359375,-421.875
965.8203125,-85.9375,97.16796875,-795.8984375
964.84375,-65.4296875,114.74609375,-806.15234375
967.28515625,-53.22265625,128.41796875,-463.8671875
966.796875,-69.82421875,111.328125,-440.91796875
966.796875,-80.078125,92.28515625,-832.51953125
966.796875,-79.1015625,96.6796875,-936.03515625
966.30859375,-72.75390625,115.234375,-526.85546875
966.796875,-63.4765625,118.65234375,-338.8671875
966.796875,-63.96484375,104.00390625,-699.70703125
966.796875,-70.80078125,104.00390625,-954.58984375
966.796875,-69.82421875,111.81640625,-690.91796875
966.796875,-75.68359375,102.05078125,-333.0078125
966.796875,-81.0546875,97.65625,-418.45703125
966.796875,-69.3359375,112.3046875,-662.109375
966.796875,-72.75390625,108.88671875,-475.09765625
966.796875,-76.171875,110.83984375,-204.1015625
966.796875,-74.70703125,116.69921875,-416.9921875
966.796875,-81.0546875,112.79296875,-870.1171875
966.30859375,-84.47265625,109.375,-884.27734375
968.26171875,-85.44921875,112.3046875,-503.41796875
954.58984375,-88.8671875,119.62890625,-432.6171875
986.328125,-88.37890625,117.1875,-806.640625
879.8828125,-89.35546875,107.91015625,-952.63671875
571.77734375,-92.7734375,101.07421875,-582.03125
612.79296875,-79.1015625,114.74609375,-395.5078125
832.51953125,-70.80078125,122.0703125,-752.9296875
599.12109375,-83.984375,100.09765625,-1000.0
107.91015625,-83.0078125,103.515625,-739.74609375
1.46484375,-69.3359375,119.140625,-402.83203125
180.6640625,-71.2890625,112.79296875,-626.46484375
48.33984375,-84.9609375,103.02734375,-994.62890625
-364.74609375,-83.0078125,104.4921875,-851.07421875
-524.4140625,-68.359375,119.140625,-489.74609375
-299.31640625,-73.2421875,111.81640625,-579.1015625
-220.703125,-83.984375,90.8203125,-944.3359375
-567.87109375,-79.58984375,97.16796875,-963.37890625
-821.2890625,-73.73046875,113.28125,-600.5859375
-612.79296875,-76.171875,114.2578125,-526.3671875
-395.99609375,-93.75,94.23828125,-865.234375
-636.71875,-89.84375,93.75,-1000.0
-937.5,-74.21875,111.328125,-803.7109375
-794.921875,-81.54296875,115.72265625,-561.03515625
-500.48828125,-84.9609375,113.76953125,-811.5234375
-604.98046875,-81.0546875,104.98046875,-1000.0
-940.91796875,-76.66015625,105.46875,-894.04296875
-926.7578125,-75.1953125,109.86328125,-603.515625
-609.86328125,-80.078125,104.00390625,-756.8359375
-622.55859375,-81.0546875,100.09765625,-1000.0
-926.7578125,-83.0078125,107.421875,-944.3359375
-1000.0,-75.68359375,110.3515625,-661.1328125
-792.48046875,-72.75390625,107.91015625,-672.36328125
-608.88671875,-71.2890625,117.67578125,-971.19140625
-840.33203125,-71.2890625,119.140625,-1000.0
-1000.0,-78.61328125,118.1640625,-747.0703125
-788.57421875,-74.70703125,122.0703125,-613.28125
-502.44140625,-66.89453125,124.0234375,-891.11328125
-642.08984375,-71.2890625,125.0,-1000.0
-893.5546875,-79.1015625,128.41796875,-839.84375
-750.9765625,-81.54296875,128.41796875,-600.5859375
-420.8984375,-81.54296875,125.0,-823.2421875
-460.44921875,-78.125,122.55859375,-1000.0
-741.69921875,-88.37890625,110.3515625,-906.73828125
-718.26171875,-75.1953125,121.09375,-642.578125
-383.30078125,-60.546875,131.8359375,-793.9453125
-279.296875,-79.1015625,113.76953125,-1000.0
-551.7578125,-77.63671875,120.1171875,-997.0703125
-682.12890625,-72.265625,139.16015625,-754.8828125
-391.6015625,-72.265625,133.30078125,-734.86328125
-174.8046875,-79.58984375,120.1171875,-984.86328125
-427.734375,-89.84375,120.60546875,-1000.0
-678.22265625,-89.35546875,130.859375,-815.91796875
-459.9609375,-87.890625,130.37109375,-687.98828125
-166.9921875,-87.890625,124.0234375,-913.57421875
-315.4296875,-93.75,117.67578125,-1000.0
-609.86328125,-81.0546875,137.6953125,-890.13671875
-509.27734375,-68.84765625,147.94921875,-698.73046875
-160.15625,-87.890625,127.44140625,-869.140625
-157.2265625,-100.5859375,117.1875,-1000.0
-465.8203125,-89.35546875,140.13671875,-958.984375
-492.1875,-83.0078125,145.01953125,-737.79296875
-179.19921875,-95.21484375,135.25390625,-812.01171875
-84.47265625,-104.98046875,139.16015625,-1000.0
-392.578125,-107.421875,138.18359375,-1000.0
-562.5,-98.14453125,140.625,-769.04296875
-270.5078125,-100.5859375,125.48828125,-673.828125
-59.08203125,-98.14453125,137.6953125,-923.828125
-329.58984375,-80.56640625,162.59765625,-1000.0
-611.328125,-91.796875,159.66796875,-837.40234375
-425.29296875,-95.703125,161.62109375,-677.24609375
-120.60546875,-89.84375,161.1328125,-899.90234375
-229.4921875,-93.75,160.15625,-1000.0
-520.5078125,-95.703125,162.109375,-905.76171875
-461.9140625,-91.796875,176.26953125,-713.37890625
-127.44140625,-85.44921875,179.19921875,-863.76953125
-84.47265625,-90.8203125,169.921875,-1000.0
-371.09375,-95.703125,166.50390625,-974.609375
-434.5703125,-97.65625,166.50390625,-749.0234375
-122.55859375,-82.51953125,177.734375,-805.6640625
39.0625,-78.125,174.8046875,-1000.0
-219.23828125,-89.35546875,164.0625,-1000.0
-390.625,-85.9375,170.41015625,-783.69140625
-114.2578125,-78.61328125,179.6875,-675.29296875
149.90234375,-85.9375,169.921875,-926.7578125
-25.87890625,-84.47265625,154.78515625,-1000.0
-272.94921875,-73.2421875,164.55078125,-768.5546875
-103.515625,-79.58984375,169.921875,-488.28125
201.66015625,-92.28515625,154.296875,-765.625
118.1640625,-102.5390625,131.34765625,-1000.0
-181.640625,-94.7265625,139.6484375,-816.40625
-144.04296875,-72.75390625,179.6875,-461.42578125
189.94140625,-83.0078125,177.734375,-607.91015625
244.62890625,-91.796875,158.69140625,-979.98046875
-41.015625,-82.51953125,170.8984375,-808.59375
-114.74609375,-71.77734375,185.546875,-304.6875
192.3828125,-80.56640625,174.8046875,-279.296875
351.07421875,-95.21484375,159.1796875,-702.1484375
85.9375,-90.33203125,164.55078125,-867.1875
-120.60546875,-90.33203125,174.8046875,-588.37890625
114.74609375,-109.375,163.0859375,-497.55859375
365.234375,-125.48828125,149.90234375,-821.77734375
187.98828125,-114.74609375,157.71484375,-1000.0
-76.171875,-96.19140625,174.31640625,-663.57421875
50.29296875,-98.14453125,175.29296875,-355.95703125
354.00390625,-105.46875,164.0625,-645.01953125
303.22265625,-99.12109375,166.9921875,-1000.0
2.44140625,-95.21484375,171.875,-817.87109375
-9.27734375,-97.65625,176.26953125,-436.5234375
292.96875,-94.23828125,172.36328125,-556.15234375
354.4921875,-96.19140625,161.62109375,-959.9609375
41.9921875,-98.14453125,162.59765625,-921.38671875
-98.6328125,-97.16796875,164.0625,-518.06640625
179.6875,-85.9375,173.33984375,-500.48828125
360.83984375,-73.2421875,182.12890625,-895.99609375
94.23828125,-79.58984375,172.8515625,-994.62890625
-160.15625,-85.9375,175.29296875,-613.76953125
41.50390625,-72.75390625,187.01171875,-423.33984375
294.43359375,-68.359375,186.5234375,-786.62109375
109.375,-87.40234375,170.8984375,-1000.0
-206.0546875,-87.40234375,168.9453125,-739.74609375
-132.32421875,-77.1484375,177.734375,-441.40625
172.36328125,-77.63671875,175.78125,-668.45703125
133.30078125,-84.9609375,160.15625,-1000.0
-204.1015625,-89.84375,157.71484375,-820.3125
-264.6484375,-84.9609375,171.875,-449.21875
20.99609375,-84.47265625,167.96875,-569.3359375
110.83984375,-87.40234375,153.80859375,-949.21875
-203.125,-91.796875,149.90234375,-925.29296875
-399.90234375,-84.9609375,168.9453125,-542.48046875
-127.44140625,-81.0546875,170.8984375,-482.91015625
90.33203125,-96.6796875,154.296875,-855.95703125
-163.57421875,-94.7265625,158.69140625,-1000.0
-437.01171875,-77.1484375,176.26953125,-641.6015625
-263.671875,-77.1484375,178.22265625,-408.203125
5.37109375,-93.75,159.66796875,-739.74609375
-135.25390625,-101.5625,153.80859375,-1000.0
-446.77734375,-89.35546875,163.57421875,-748.046875
-392.08984375,-83.0078125,168.9453125,-429.6875
-79.1015625,-104.4921875,144.53125,-621.09375
-88.37890625,-103.515625,137.6953125,-984.86328125
-398.92578125,-92.28515625,165.0390625,-859.86328125
-454.1015625,-103.02734375,159.66796875,-444.82421875
-149.4140625,-102.05078125,147.4609375,-499.0234375
-6.34765625,-101.5625,148.92578125,-911.62109375
-282.71484375,-106.4453125,147.4609375,-934.08203125
-472.16796875,-106.4453125,149.90234375,-538.57421875
-211.9140625,-101.5625,161.62109375,-433.10546875
40.52734375,-98.14453125,159.1796875,-799.31640625
-149.90234375,-99.609375,144.53125,-972.16796875
-416.50390625,-104.4921875,153.80859375,-605.46875
-274.90234375,-103.515625,170.8984375,-342.7734375
8.30078125,-90.8203125,177.734375,-671.38671875
-72.75390625,-93.26171875,176.26953125,-981.4453125
-366.2109375,-100.09765625,172.8515625,-695.3125
-329.58984375,-91.30859375,176.26953125,-328.61328125
0.48828125,-85.44921875,179.6875,-524.90234375
49.31640625,-92.28515625,168.9453125,-917.48046875
-242.1875,-98.6328125,159.1796875,-807.6171875
-332.51953125,-95.21484375,163.0859375,-398.92578125
-36.62109375,-97.16796875,166.9921875,-388.18359375
130.859375,-101.5625,155.2734375,-779.78515625
-142.578125,-119.140625,134.27734375,-837.40234375
-359.375,-113.28125,152.34375,-444.82421875
-118.65234375,-88.37890625,183.59375,-308.59375
149.4140625,-103.02734375,156.73828125,-665.52734375
-27.83203125,-110.83984375,141.11328125,-884.765625
-309.08203125,-103.515625,163.57421875,-556.640625
-172.36328125,-101.5625,168.9453125,-275.390625
136.23046875,-107.91015625,148.4375,-552.24609375
76.171875,-110.83984375,143.5546875,-876.46484375
-230.46875,-103.515625,162.109375,-650.390625
-248.53515625,-105.46875,161.62109375,-276.3671875
62.5,-111.328125,146.97265625,-402.83203125
143.06640625,-119.62890625,128.90625,-770.99609375
-177.24609375,-104.4921875,147.4609375,-720.703125
-321.77734375,-85.44921875,174.31640625,-339.35546875
-39.0625,-96.19140625,152.83203125,-306.640625
145.99609375,-106.4453125,135.25390625,-703.61328125
-109.375,-93.75,146.97265625,-812.01171875
-342.28515625,-85.44921875,153.80859375,-422.36328125
-113.28125,-93.26171875,145.01953125,-213.8671875
172.8515625,-92.28515625,130.37109375,-570.80078125
-4.39453125,-91.30859375,125.48828125,-822.265625
-317.87109375,-93.26171875,136.71875,-502.9296875
-218.75,-102.05078125,131.34765625,-199.21875
84.47265625,-104.00390625,123.53515625,-443.359375
40.52734375,-89.35546875,135.7421875,-815.4296875
-282.71484375,-94.7265625,134.765625,-628.41796875
-331.54296875,-94.7265625,142.578125,-241.2109375
-40.52734375,-86.9140625,151.3671875,-351.07421875
41.50390625,-93.75,144.04296875,-744.140625
-280.2734375,-104.4921875,127.9296875,-722.65625
-486.81640625,-103.02734375,136.71875,-326.66015625
-252.44140625,-98.6328125,159.1796875,-256.8359375
-62.98828125,-99.12109375,151.3671875,-640.13671875
-353.515625,-104.98046875,141.11328125,-781.25
-655.76171875,-108.88671875,149.4140625,-406.73828125
-481.93359375,-97.16796875,168.9453125,-199.70703125
-215.8203125,-87.890625,170.41015625,-539.0625
-362.3046875,-92.7734375,154.78515625,-805.6640625
-663.0859375,-95.703125,162.59765625,-520.5078125
-614.2578125,-97.65625,179.6875,-191.89453125
-315.4296875,-96.19140625,175.29296875,-397.94921875
-300.29296875,-97.65625,172.36328125,-754.39453125
-613.76953125,-95.21484375,183.59375,-604.4921875
-682.12890625,-84.47265625,192.3828125,-213.37890625
-368.1640625,-86.9140625,186.03515625,-267.578125
-214.84375,-104.00390625,164.0625,-649.4140625
-499.51171875,-107.91015625,158.69140625,-682.12890625
-678.22265625,-91.30859375,181.640625,-294.43359375
-382.32421875,-98.14453125,176.26953125,-159.66796875
-122.55859375,-107.421875,153.80859375,-520.5078125
-345.703125,-86.9140625,153.3203125,-728.02734375
-638.671875,-73.2421875,165.52734375,-411.1328125
-462.40234375,-84.47265625,168.9453125,-143.5546875
-127.9296875,-91.30859375,159.1796875,-429.6875
-212.890625,-88.8671875,156.25,-739.74609375
-518.5546875,-82.51953125,169.921875,-500.0
-454.1015625,-83.984375,166.9921875,-146.97265625
-121.09375,-91.30859375,144.53125,-317.87109375
-89.35546875,-101.07421875,137.20703125,-705.56640625
-393.06640625,-101.5625,144.53125,-603.02734375
-479.4921875,-95.703125,147.4609375,-188.4765625
-173.828125,-99.609375,143.06640625,-192.87109375
-8.7890625,-90.8203125,144.04296875,-600.5859375
-264.16015625,-87.890625,135.25390625,-676.7578125
-479.00390625,-98.14453125,134.27734375,-283.69140625
-247.55859375,-95.703125,145.01953125,-128.90625
21.97265625,-90.8203125,145.5078125,-492.67578125
-159.1796875,-104.00390625,134.27734375,-717.7734375
-433.10546875,-109.86328125,135.25390625,-385.25390625
-285.64453125,-105.95703125,149.4140625,-92.28515625
41.9921875,-102.5390625,154.78515625,-362.79296875
0.9765625,-99.609375,153.80859375,-688.96484375
-296.875,-114.74609375,142.08984375,-458.49609375
-298.33984375,-113.76953125,146.484375,-95.21484375
34.1796875,-86.42578125,169.921875,-247.55859375
141.11328125,-90.33203125,166.9921875,-619.62890625
-154.78515625,-100.5859375,158.69140625,-553.7109375
-307.12890625,-100.5859375,157.2265625,-162.109375
-25.87890625,-96.19140625,164.0625,-140.13671875
171.38671875,-102.5390625,151.3671875,-532.2265625
-85.9375,-106.93359375,142.578125,-637.6953125
-332.51953125,-103.02734375,151.85546875,-261.23046875
-123.53515625,-100.09765625,152.83203125,-82.51953125
149.4140625,-102.5390625,134.765625,-424.31640625
-2.44140625,-105.95703125,125.48828125,-669.43359375
-286.1328125,-85.44921875,152.83203125,-377.44140625
-167.96875,-81.54296875,158.69140625,-80.078125
166.50390625,-101.5625,138.18359375,-310.546875
168.45703125,-105.95703125,136.71875,-645.01953125
-120.60546875,-97.16796875,149.90234375,-479.98046875
-148.4375,-93.75,156.25,-112.79296875
183.10546875,-99.609375,143.5546875,-209.47265625
299.8046875,-107.421875,125.48828125,-603.515625
14.16015625,-111.328125,124.0234375,-574.70703125
-136.71875,-102.05078125,132.8125,-178.22265625
145.99609375,-105.95703125,121.09375,-109.86328125
361.81640625,-114.74609375,107.421875,-501.46484375
131.34765625,-100.09765625,120.1171875,-675.78125
-112.3046875,-91.796875,137.6953125,-310.05859375
78.125,-89.84375,144.04296875,-83.984375
358.3984375,-90.8203125,138.671875,-412.109375
222.65625,-93.75,133.30078125,-693.359375
-84.47265625,-97.16796875,134.765625,-410.15625
-26.3671875,-93.75,134.27734375,-80.56640625
278.3203125,-91.796875,131.8359375,-302.24609375
283.69140625,-96.6796875,125.48828125,-651.3671875
-35.15625,-99.609375,129.39453125,-495.60546875
-133.30078125,-100.5859375,131.8359375,-107.421875
150.390625,-92.7734375,141.11328125,-193.84765625
294.921875,-88.8671875,140.13671875,-604.98046875
12.20703125,-93.75,126.953125,-609.86328125
-196.77734375,-102.5390625,130.37109375,-221.19140625
52.734375,-95.21484375,145.01953125,-117.1875
290.52734375,-90.33203125,143.06640625,-486.81640625
71.2890625,-99.12109375,131.8359375,-666.9921875
-208.984375,-94.7265625,148.92578125,-314.453125
-49.8046875,-86.42578125,160.64453125,-58.59375
241.2109375,-91.30859375,144.04296875,-355.46875
130.859375,-105.46875,125.9765625,-646.97265625
-194.82421875,-98.6328125,145.01953125,-402.34375
-171.875,-78.125,179.19921875,-72.75390625
146.97265625,-87.40234375,173.828125,-238.28125
197.265625,-99.609375,164.0625,-597.16796875
-121.09375,-88.8671875,174.31640625,-494.140625
-216.796875,-77.1484375,189.94140625,-137.20703125
92.28515625,-84.9609375,176.26953125,-161.62109375
238.76953125,-90.33203125,165.0390625,-516.11328125
-26.3671875,-84.9609375,180.17578125,-584.9609375
-254.8828125,-86.42578125,187.01171875,-216.30859375
-11.71875,-90.33203125,184.5703125,-54.6875
259.27734375,-100.5859375,171.875,-384.765625
65.4296875,-91.796875,182.6171875,-631.8359375
-226.5625,-82.51953125,207.03125,-336.9140625
-103.515625,-96.19140625,201.171875,-45.41015625
201.171875,-100.09765625,186.03515625,-326.171875
133.7890625,-96.19140625,183.59375,-668.45703125
-192.87109375,-89.84375,190.91796875,-459.9609375
-207.51953125,-92.7734375,198.2421875,-91.796875
99.609375,-92.7734375,189.453125,-232.91015625
163.0859375,-87.40234375,180.17578125,-614.2578125
-139.6484375,-88.8671875,176.26953125,-543.45703125
-273.4375,-95.703125,166.015625,-142.08984375
5.859375,-88.8671875,171.38671875,-116.69921875
205.078125,-69.3359375,190.4296875,-526.3671875
-40.0390625,-75.68359375,179.6875,-645.99609375
-288.0859375,-89.35546875,172.8515625,-269.04296875
-88.37890625,-85.44921875,181.640625,-74.21875
192.3828125,-79.1015625,180.6640625,-406.25
39.55078125,-88.37890625,173.828125,-642.578125
-269.53125,-94.7265625,171.875,-347.16796875
-177.734375,-90.33203125,172.8515625,-48.33984375
138.18359375,-87.890625,166.9921875,-284.1796875
118.1640625,-94.23828125,152.83203125,-619.62890625
-193.359375,-102.05078125,149.90234375,-428.22265625
-244.140625,-91.30859375,166.9921875,-64.94140625
61.5234375,-85.9375,161.62109375,-175.78125
179.6875,-97.16796875,144.53125,-550.29296875
-110.3515625,-97.65625,150.87890625,-519.04296875
-282.71484375,-84.9609375,174.31640625,-135.7421875
-9.27734375,-86.9140625,171.38671875,-80.56640625
216.796875,-96.6796875,157.2265625,-457.03125
-15.13671875,-101.07421875,156.25,-595.703125
-281.25,-96.6796875,164.0625,-250.0
-91.796875,-90.8203125,162.59765625,-38.57421875
196.77734375,-99.609375,140.13671875,-344.23828125
62.98828125,-108.88671875,124.0234375,-618.65234375
-243.1640625,-97.16796875,149.4140625,-355.95703125
-190.4296875,-86.42578125,158.203125,-30.2734375
119.140625,-109.375,124.51171875,-223.14453125
128.41796875,-106.93359375,119.140625,-580.56640625
-184.08203125,-77.63671875,148.92578125,-465.8203125
-259.27734375,-78.125,150.390625,-87.890625
43.45703125,-85.44921875,133.7890625,-140.625
193.359375,-83.984375,125.9765625,-525.87890625
-63.4765625,-79.58984375,127.9296875,-535.64453125
-276.3671875,-83.984375,141.11328125,-154.296875
-77.63671875,-90.33203125,131.34765625,-109.86328125
151.3671875,-95.21484375,112.79296875,-500.48828125
-48.828125,-88.8671875,122.0703125,-656.73828125
-333.984375,-81.0546875,135.25390625,-312.5
-201.171875,-93.26171875,136.71875,-70.80078125
84.9609375,-87.890625,140.13671875,-396.484375
-1.46484375,-84.47265625,128.90625,-709.9609375
-314.453125,-96.19140625,121.09375,-462.40234375
-288.0859375,-86.9140625,137.20703125,-110.83984375
43.45703125,-76.66015625,139.16015625,-278.80859375
93.26171875,-81.0546875,123.53515625,-638.18359375
-224.12109375,-85.44921875,125.9765625,-528.3203125
-345.703125,-88.8671875,142.578125,-148.4375
-47.8515625,-89.84375,137.20703125,-168.9453125
132.8125,-90.8203125,127.9296875,-551.7578125
-120.1171875,-100.5859375,121.09375,-592.7734375
-344.23828125,-97.16796875,131.34765625,-206.0546875
-117.1875,-85.44921875,145.99609375,-71.77734375
158.69140625,-97.65625,125.9765625,-410.15625
-19.53125,-102.5390625,118.1640625,-614.2578125
-308.59375,-90.33203125,133.7890625,-297.8515625
-186.03515625,-87.890625,137.20703125,-25.390625
118.65234375,-97.65625,121.58203125,-286.1328125
62.98828125,-100.09765625,118.1640625,-604.4921875
-250.0,-85.44921875,132.32421875,-398.92578125
-258.30078125,-82.51953125,136.23046875,-31.25
58.59375,-94.23828125,124.51171875,-157.71484375
137.6953125,-100.5859375,107.421875,-524.90234375
-169.921875,-80.56640625,124.0234375,-466.30859375
-315.4296875,-63.4765625,138.18359375,-79.58984375
-43.9453125,-73.73046875,127.44140625,-43.9453125
145.5078125,-78.125,123.046875,-421.38671875
-116.69921875,-69.82421875,125.0,-541.015625
-375.48828125,-68.84765625,125.0,-175.78125
-173.828125,-73.73046875,118.65234375,18.06640625
111.328125,-74.70703125,117.1875,-316.40625
-39.55078125,-81.0546875,112.3046875,-557.12890625
-348.14453125,-83.984375,110.83984375,-272.94921875
-261.71875,-84.9609375,108.88671875,33.203125
38.57421875,-82.03125,105.95703125,-197.265625
3.90625,-73.73046875,122.0703125,-554.19921875
-313.4765625,-75.68359375,122.0703125,-377.9296875
-364.2578125,-71.2890625,119.62890625,-5.37109375
-68.84765625,-72.265625,123.046875,-112.3046875
34.66796875,-79.1015625,118.65234375,-498.53515625
-261.23046875,-81.54296875,119.140625,-475.09765625
-440.4296875,-78.125,125.0,-96.19140625
-180.17578125,-71.2890625,131.8359375,-29.296875
37.109375,-75.1953125,121.09375,-395.01953125
-195.3125,-83.0078125,108.3984375,-544.43359375
-460.9375,-86.42578125,112.79296875,-182.6171875
-296.875,-77.1484375,130.37109375,30.2734375
-23.92578125,-65.91796875,134.765625,-292.96875
-164.0625,-76.66015625,123.046875,-558.59375
-493.65234375,-82.51953125,126.46484375,-295.41015625
-451.171875,-74.21875,137.20703125,20.5078125
-143.06640625,-74.21875,142.08984375,-193.359375
-123.53515625,-87.890625,108.3984375,-564.453125
-419.921875,-86.9140625,103.02734375,-454.58984375
-487.79296875,-68.84765625,140.13671875,-93.26171875
-157.2265625,-71.77734375,131.8359375,-134.27734375
20.99609375,-87.40234375,102.05078125,-487.3046875
-239.74609375,-84.47265625,109.375,-507.8125
-424.31640625,-69.3359375,133.7890625,-138.18359375
-138.18359375,-76.171875,124.51171875,-22.4609375
123.046875,-81.54296875,105.95703125,-365.234375
-105.95703125,-74.21875,115.234375,-541.9921875
-350.5859375,-64.94140625,133.30078125,-227.05078125
-155.76171875,-64.453125,134.27734375,13.18359375
129.8828125,-71.77734375,118.65234375,-280.2734375
21.484375,-70.80078125,110.3515625,-583.49609375
-284.66796875,-71.2890625,120.60546875,-337.40234375
-272.4609375,-69.82421875,132.8125,15.13671875
16.11328125,-76.171875,128.41796875,-135.25390625
19.04296875,-79.1015625,118.1640625,-500.9765625
-331.54296875,-79.1015625,118.1640625,-420.41015625
-463.37890625,-82.51953125,117.67578125,-35.64453125
-197.265625,-81.0546875,112.3046875,-43.45703125
-37.59765625,-69.82421875,119.140625,-434.08203125
-307.12890625,-70.80078125,116.2109375,-501.953125
-560.546875,-83.0078125,120.60546875,-136.23046875
-353.02734375,-70.3125,130.37109375,0.48828125
-84.47265625,-58.59375,125.9765625,-350.09765625
-252.44140625,-74.21875,124.51171875,-579.1015625
-545.41015625,-86.9140625,139.16015625,-284.1796875
-438.96484375,-86.42578125,147.94921875,-17.578125
-134.765625,-81.0546875,143.06640625,-289.55078125
-178.22265625,-88.37890625,145.01953125,-628.90625
-472.16796875,-110.83984375,142.578125,-399.90234375
-470.703125,-105.46875,168.9453125,-37.109375
-122.0703125,-89.84375,200.1953125,-196.77734375
1.46484375,-102.5390625,185.546875,-561.5234375
-284.66796875,-112.3046875,191.40625,-500.9765625
-413.0859375,-104.00390625,213.37890625,-108.88671875
-112.3046875,-95.21484375,223.14453125,-71.77734375
104.4921875,-97.65625,214.84375,-446.77734375
-133.30078125,-102.05078125,217.7734375,-538.0859375
-371.58203125,-101.5625,247.0703125,-164.0625
-155.76171875,-98.14453125,258.7890625,31.25
128.41796875,-106.93359375,238.76953125,-284.66796875
-6.34765625,-120.60546875,232.91015625,-506.34765625
-301.7578125,-107.91015625,262.20703125,-211.9140625
-216.30859375,-98.6328125,270.01953125,83.49609375
100.5859375,-109.86328125,243.65234375,-139.6484375
79.58984375,-113.28125,232.421875,-476.5625
-240.234375,-114.74609375,235.3515625,-312.98828125
-264.16015625,-115.72265625,226.5625,74.21875
73.2421875,-117.67578125,208.984375,4.8828125
206.54296875,-118.1640625,200.1953125,-366.2109375
-54.19921875,-112.3046875,202.63671875,-335.9375
-202.1484375,-109.86328125,202.1484375,50.29296875
74.21875,-120.60546875,180.6640625,136.71875
305.17578125,-120.60546875,167.96875,-216.796875
90.8203125,-101.07421875,181.640625,-378.41796875
-170.41015625,-109.86328125,176.7578125,-40.0390625
-0.48828125,-123.046875,167.48046875,171.38671875
282.2265625,-121.09375,145.01953125,-142.578125
158.203125,-112.3046875,132.8125,-416.015625
-174.31640625,-111.81640625,137.6953125,-150.87890625
-139.6484375,-113.76953125,142.08984375,160.64453125
141.6015625,-108.3984375,135.25390625,-44.921875
130.37109375,-113.28125,117.67578125,-380.859375
-164.0625,-113.76953125,119.140625,-236.81640625
-265.625,-117.67578125,117.1875,143.5546875
31.25,-104.98046875,135.25390625,102.05078125
197.265625,-99.12109375,140.625,-279.78515625
-65.4296875,-115.234375,115.72265625,-309.08203125
-243.1640625,-111.81640625,123.53515625,73.73046875
35.15625,-104.4921875,136.71875,184.5703125
295.41015625,-106.93359375,125.9765625,-181.640625
103.515625,-110.83984375,116.69921875,-360.3515625
-168.9453125,-106.4453125,130.37109375,-29.296875
-14.6484375,-97.65625,133.30078125,213.8671875
301.26953125,-102.5390625,116.69921875,-71.2890625
227.5390625,-114.2578125,99.12109375,-351.5625
-78.61328125,-104.4921875,104.98046875,-120.60546875
-63.4765625,-83.0078125,136.23046875,188.96484375
250.48828125,-84.9609375,134.27734375,24.4140625
313.4765625,-93.26171875,120.1171875,-330.56640625
11.23046875,-90.8203125,129.8828125,-247.55859375
-120.60546875,-85.9375,139.16015625,118.1640625
164.0625,-94.23828125,124.0234375,104.98046875
340.33203125,-102.05078125,114.2578125,-266.11328125
55.17578125,-95.21484375,121.09375,-340.33203125
-164.0625,-95.21484375,125.9765625,16.11328125
68.359375,-107.421875,117.1875,170.41015625
316.89453125,-111.81640625,100.5859375,-158.69140625
143.06640625,-101.5625,111.81640625,-380.37109375
-147.94921875,-86.42578125,128.41796875,-85.44921875
-28.3203125,-93.26171875,119.140625,187.5
286.1328125,-103.515625,101.07421875,-65.91796875
242.67578125,-93.75,104.00390625,-388.18359375
-70.3125,-83.49609375,117.67578125,-192.3828125
-81.0546875,-89.84375,119.140625,151.3671875
245.1171875,-89.84375,114.2578125,23.4375
338.37890625,-85.44921875,109.86328125,-348.14453125
41.9921875,-92.28515625,109.86328125,-290.52734375
-105.95703125,-104.00390625,104.4921875,99.12109375
178.7109375,-97.65625,116.2109375,115.72265625
394.04296875,-86.42578125,124.0234375,-258.30078125
152.83203125,-87.890625,117.1875,-361.328125
-91.796875,-91.796875,116.69921875,-8.7890625
116.2109375,-83.0078125,129.39453125,172.36328125
394.04296875,-74.70703125,130.859375,-161.1328125
242.67578125,-78.125,116.2109375,-404.296875
-55.17578125,-78.125,122.0703125,-117.1875
31.73828125,-69.3359375,139.6484375,167.48046875
347.16796875,-69.82421875,143.06640625,-65.4296875
325.68359375,-87.890625,125.9765625,-375.9765625
9.27734375,-95.21484375,127.44140625,-188.96484375
-37.59765625,-87.890625,143.06640625,143.5546875
268.06640625,-87.40234375,140.13671875,35.15625
374.51171875,-98.6328125,127.44140625,-336.42578125
78.125,-101.07421875,121.58203125,-314.94140625
-95.21484375,-75.68359375,153.3203125,51.26953125
171.875,-71.77734375,163.0859375,106.93359375
395.01953125,-88.37890625,141.11328125,-254.39453125
159.66796875,-88.37890625,138.671875,-403.3203125
-105.46875,-81.54296875,152.83203125,-68.84765625
75.1953125,-90.8203125,151.3671875,149.4140625
368.65234375,-104.4921875,146.97265625,-149.90234375
246.09375,-109.86328125,145.99609375,-420.41015625
-72.75390625,-101.07421875,159.1796875,-163.57421875
-25.87890625,-90.8203125,174.8046875,139.6484375
293.9453125,-106.93359375,152.34375,-41.015625
318.84765625,-109.375,149.4140625,-377.9296875
3.90625,-84.9609375,176.7578125,-271.484375
-90.8203125,-84.9609375,181.15234375,100.09765625
208.0078125,-92.28515625,177.734375,54.19921875
354.98046875,-95.21484375,171.875,-326.66015625
75.68359375,-96.19140625,172.8515625,-361.81640625
-127.9296875,-93.75,182.12890625,20.5078125
107.421875,-98.14453125,174.8046875,93.26171875
344.23828125,-104.98046875,163.57421875,-278.80859375
144.04296875,-109.86328125,162.109375,-426.26953125
-138.18359375,-107.91015625,169.921875,-102.5390625
11.71875,-100.5859375,171.38671875,162.109375
309.08203125,-95.21484375,173.828125,-126.46484375
220.703125,-95.703125,169.921875,-438.96484375
-88.8671875,-100.09765625,159.1796875,-208.984375
-75.1953125,-97.16796875,166.9921875,113.28125
240.234375,-89.84375,169.43359375,-54.19921875
294.43359375,-96.6796875,154.78515625,-396.484375
-12.6953125,-103.02734375,151.85546875,-305.6640625
-134.27734375,-94.23828125,168.45703125,64.453125
160.15625,-95.703125,168.45703125,65.91796875
346.6796875,-97.65625,154.296875,-298.828125
71.2890625,-107.91015625,140.13671875,-372.0703125
-176.26953125,-107.91015625,146.484375,-26.85546875
52.734375,-83.984375,174.31640625,107.421875
326.66015625,-93.26171875,161.62109375,-223.14453125
148.4375,-102.05078125,148.92578125,-434.5703125
-146.484375,-92.28515625,163.0859375,-142.08984375
-22.94921875,-83.984375,171.875,129.8828125
284.66796875,-88.37890625,158.69140625,-110.83984375
221.6796875,-93.75,152.34375,-425.29296875
-95.703125,-89.84375,161.62109375,-227.5390625
-128.90625,-90.8203125,162.59765625,113.28125
183.59375,-93.75,153.3203125,-22.4609375
339.84375,-101.5625,134.27734375,-363.76953125
58.59375,-81.0546875,155.2734375,-316.40625
-148.92578125,-65.4296875,176.7578125,41.9921875
126.46484375,-76.171875,155.2734375,87.890625
338.37890625,-78.125,147.4609375,-291.015625
58.10546875,-73.73046875,157.71484375,-408.69140625
-197.75390625,-69.82421875,168.45703125,-47.36328125
21.97265625,-78.125,168.9453125,140.625
292.96875,-83.984375,161.62109375,-176.26953125
133.30078125,-82.03125,160.64453125,-413.0859375
-171.38671875,-86.9140625,165.0390625,-137.6953125
-92.7734375,-93.26171875,154.78515625,154.78515625
214.84375,-91.30859375,153.3203125,-62.98828125
196.2890625,-69.3359375,177.24609375,-413.57421875
-125.48828125,-73.2421875,173.828125,-263.18359375
-190.4296875,-79.1015625,173.33984375,110.3515625
109.86328125,-72.75390625,173.828125,20.99609375
227.5390625,-81.0546875,162.59765625,-361.328125
-62.98828125,-88.8671875,156.25,-346.6796875
-238.76953125,-82.03125,165.0390625,25.87890625
32.71484375,-74.21875,174.31640625,98.14453125
271.97265625,-79.1015625,161.1328125,-257.8125
63.4765625,-82.51953125,150.87890625,-401.3671875
-190.4296875,-89.84375,149.4140625,-55.6640625
0.9765625,-79.1015625,163.0859375,149.4140625
303.7109375,-67.3828125,173.33984375,-165.0390625
190.91796875,-85.44921875,156.25,-430.6640625
-124.0234375,-90.8203125,155.76171875,-181.640625
-81.0546875,-79.58984375,168.9453125,123.046875
238.76953125,-77.63671875,161.62109375,-65.4296875
257.32421875,-82.51953125,142.578125,-398.92578125
-72.75390625,-86.9140625,142.08984375,-270.5078125
-176.26953125,-83.984375,157.2265625,82.03125
128.90625,-78.125,160.15625,30.2734375
288.57421875,-97.65625,129.39453125,-320.3125
9.27734375,-101.07421875,134.765625,-343.75
-199.70703125,-79.58984375,168.9453125,3.90625
50.78125,-80.56640625,158.69140625,121.58203125
297.36328125,-86.9140625,138.18359375,-221.6796875
94.23828125,-87.40234375,140.625,-405.2734375
-190.91796875,-83.49609375,152.83203125,-75.68359375
-52.24609375,-80.56640625,150.87890625,168.9453125
248.046875,-82.03125,146.484375,-107.91015625
167.48046875,-76.66015625,148.4375,-400.87890625
-144.53125,-77.63671875,148.92578125,-181.15234375
-98.14453125,-89.35546875,148.4375,129.39453125
245.60546875,-93.75,139.6484375,-28.80859375
306.640625,-86.42578125,132.8125,-360.83984375
23.92578125,-85.44921875,132.32421875,-279.296875
-77.1484375,-82.03125,137.20703125,82.51953125
217.7734375,-83.984375,134.765625,69.82421875
398.92578125,-82.03125,135.25390625,-312.98828125
138.671875,-87.40234375,127.44140625,-386.71875
-94.7265625,-97.16796875,126.46484375,-19.53125
135.25390625,-78.61328125,134.27734375,144.04296875
402.83203125,-74.70703125,132.8125,-172.8515625
204.58984375,-81.54296875,141.6015625,-398.4375
-125.0,-85.44921875,147.94921875,-133.7890625
-20.5078125,-91.796875,144.04296875,135.25390625
274.90234375,-88.8671875,155.2734375,-98.14453125
196.77734375,-86.42578125,153.80859375,-418.9453125
-122.0703125,-99.609375,133.30078125,-208.984375
-150.87890625,-94.7265625,154.78515625,139.6484375
147.94921875,-74.70703125,174.31640625,-13.18359375
224.12109375,-80.078125,144.04296875,-367.67578125
-81.54296875,-84.47265625,137.6953125,-307.6171875
-240.72265625,-78.61328125,154.78515625,53.22265625
26.85546875,-78.125,159.66796875,86.42578125
228.515625,-86.9140625,139.6484375,-267.578125
-15.625,-90.33203125,126.953125,-370.1171875
-261.71875,-84.47265625,135.7421875,-17.578125
-61.5234375,-78.125,142.578125,155.2734375
226.5625,-79.1015625,130.859375,-153.80859375
90.8203125,-86.9140625,122.0703125,-380.859375
-215.8203125,-79.1015625,141.11328125,-120.1171875
-132.8125,-79.58984375,139.6484375,160.64453125
187.5,-86.9140625,123.046875,-56.15234375
169.921875,-89.35546875,120.60546875,-387.6953125
-142.578125,-83.0078125,128.41796875,-234.375
-189.453125,-77.63671875,137.6953125,118.1640625
118.65234375,-86.9140625,132.32421875,32.2265625
235.3515625,-90.33203125,120.60546875,-329.58984375
-57.12890625,-90.8203125,119.140625,-325.1953125
-233.88671875,-85.44921875,129.39453125,37.59765625
35.64453125,-92.28515625,125.9765625,127.44140625
258.7890625,-95.21484375,120.60546875,-230.46875
28.3203125,-75.68359375,138.18359375,-394.04296875
-224.609375,-78.61328125,138.671875,-57.6171875
-45.8984375,-84.9609375,131.34765625,147.94921875
242.1875,-81.54296875,120.1171875,-144.04296875
139.16015625,-77.1484375,119.140625,-408.203125
-153.80859375,-80.56640625,119.140625,-160.64453125
-109.375,-77.63671875,119.140625,149.90234375
197.75390625,-76.171875,121.09375,-44.921875
219.23828125,-89.84375,104.00390625,-383.7890625
-98.14453125,-96.19140625,102.5390625,-260.25390625
-194.3359375,-94.7265625,109.86328125,104.00390625
110.3515625,-78.125,120.1171875,41.015625
268.06640625,-71.77734375,121.58203125,-334.47265625
-9.765625,-87.40234375,109.86328125,-351.5625
-218.75,-90.33203125,106.4453125,7.32421875
41.015625,-76.66015625,119.140625,123.53515625
296.875,-81.54296875,112.79296875,-210.9375
85.9375,-95.703125,92.7734375,-387.20703125
-194.82421875,-85.9375,109.375,-63.4765625
-46.875,-77.63671875,130.859375,160.64453125
244.140625,-86.42578125,117.1875,-114.74609375
149.4140625,-97.65625,93.26171875,-367.1875
-170.8984375,-93.75,101.07421875,-144.04296875
-172.8515625,-66.89453125,131.8359375,158.69140625
140.13671875,-67.87109375,119.62890625,4.39453125
195.80078125,-77.63671875,104.98046875,-333.49609375
-114.2578125,-78.61328125,112.79296875,-239.74609375
-218.75,-71.77734375,127.9296875,124.0234375
91.30859375,-76.66015625,120.60546875,111.81640625
286.62109375,-86.9140625,104.98046875,-256.34765625
49.31640625,-79.1015625,112.3046875,-321.2890625
-153.80859375,-71.77734375,122.55859375,40.52734375
76.66015625,-78.61328125,114.2578125,188.4765625
343.75,-87.890625,95.703125,-124.51171875
175.29296875,-81.54296875,96.6796875,-336.9140625
-109.375,-65.91796875,111.81640625,-59.5703125
11.71875,-65.91796875,116.2109375,201.66015625
326.66015625,-73.2421875,110.3515625,-50.78125
288.0859375,-73.73046875,105.46875,-360.3515625
-21.484375,-68.359375,111.328125,-166.015625
-50.78125,-74.70703125,113.76953125,172.36328125
255.859375,-80.56640625,106.4453125,46.875
341.796875,-75.68359375,109.86328125,-318.359375
36.62109375,-77.1484375,111.328125,-263.671875
-106.4453125,-83.49609375,99.609375,122.55859375
166.9921875,-82.03125,100.5859375,152.34375
374.51171875,-71.2890625,105.95703125,-210.9375
164.55078125,-67.3828125,106.4453125,-295.8984375
-102.05078125,-74.21875,123.53515625,33.203125
42.96875,-78.61328125,135.7421875,168.45703125
323.73046875,-79.58984375,125.48828125,-152.83203125
192.87109375,-92.28515625,117.1875,-382.32421875
-108.88671875,-93.75,124.0234375,-116.69921875
-7.32421875,-80.56640625,140.625,175.29296875
303.22265625,-83.49609375,134.765625,-43.45703125
279.78515625,-96.6796875,118.65234375,-359.375
-13.18359375,-99.609375,118.65234375,-188.96484375
-61.5234375,-96.6796875,129.8828125,145.01953125
246.58203125,-88.37890625,138.18359375,60.05859375
374.0234375,-87.40234375,122.55859375,-289.55078125
80.078125,-101.5625,103.515625,-279.296875
-107.421875,-86.9140625,125.0,81.54296875
156.25,-78.61328125,132.8125,152.83203125
380.37109375,-94.7265625,106.93359375,-199.70703125
160.64453125,-96.19140625,104.98046875,-349.12109375
-105.95703125,-88.8671875,122.55859375,-17.578125
52.734375,-86.42578125,126.46484375,201.171875
340.8203125,-95.21484375,106.93359375,-84.47265625
228.515625,-100.5859375,99.12109375,-348.14453125
-83.984375,-87.890625,111.81640625,-107.91015625
-41.015625,-74.21875,126.46484375,194.3359375
282.2265625,-88.8671875,101.5625,17.578125
303.7109375,-92.7734375,88.37890625,-312.5
-16.6015625,-70.3125,120.1171875,-211.42578125
-104.98046875,-70.3125,114.2578125,144.53125
204.58984375,-68.359375,104.98046875,106.4453125
346.19140625,-68.359375,99.609375,-261.71875
46.875,-72.75390625,94.23828125,-289.0625
-167.48046875,-74.70703125,100.09765625,75.68359375
72.265625,-73.73046875,101.07421875,187.01171875
307.12890625,-70.3125,103.515625,-150.87890625
91.796875,-75.68359375,101.07421875,-336.42578125
-196.77734375,-76.66015625,97.16796875,-31.73828125
-54.6875,-74.70703125,97.16796875,213.37890625
231.93359375,-67.3828125,108.88671875,-62.5
143.5546875,-65.91796875,112.79296875,-353.515625
-165.0390625,-72.75390625,103.515625,-141.11328125
-171.38671875,-70.3125,111.328125,162.109375
124.51171875,-66.40625,115.72265625,-2.9296875
176.26953125,-73.2421875,95.703125,-340.8203125
-139.16015625,-76.66015625,94.7265625,-245.60546875
-268.5546875,-68.359375,109.375,99.12109375
29.296875,-60.05859375,106.4453125,95.21484375
195.80078125,-59.08203125,98.6328125,-261.71875
-77.1484375,-69.3359375,90.8203125,-329.58984375
-308.59375,-68.359375,110.3515625,23.92578125
-109.86328125,-58.59375,132.32421875,137.6953125
141.6015625,-73.2421875,108.88671875,-204.1015625
-40.0390625,-89.35546875,96.19140625,-411.62109375
-335.9375,-77.1484375,119.62890625,-108.88671875
-242.67578125,-65.91796875,148.4375,134.765625
8.30078125,-79.58984375,129.39453125,-158.69140625
-58.10546875,-77.63671875,106.93359375,-484.375
-367.1875,-70.3125,121.58203125,-294.43359375
-387.6953125,-66.89453125,134.765625,17.578125
-103.515625,-73.73046875,134.765625,-138.671875
-41.9921875,-85.9375,121.09375,-492.67578125
-353.515625,-72.265625,138.671875,-472.65625
-519.04296875,-59.08203125,165.0390625,-133.7890625
-243.65234375,-71.2890625,163.57421875,-106.4453125
-60.546875,-76.66015625,160.64453125,-478.515625
-314.453125,-67.3828125,172.36328125,-599.609375
-555.6640625,-73.73046875,176.26953125,-261.23046875
-361.328125,-75.1953125,164.0625,-73.2421875
-100.5859375,-78.61328125,164.0625,-389.6484375
-255.859375,-81.54296875,167.96875,-642.08984375
-562.01171875,-80.078125,167.48046875,-373.046875
-497.55859375,-87.40234375,157.2265625,-71.2890625
-184.08203125,-88.8671875,149.4140625,-283.203125
-185.05859375,-65.4296875,166.50390625,-625.48828125
-504.39453125,-62.98828125,160.64453125,-476.5625
-567.87109375,-67.3828125,152.83203125,-126.953125
-259.765625,-60.05859375,159.1796875,-195.3125
-129.39453125,-51.26953125,162.59765625,-536.62109375
-413.57421875,-54.19921875,153.3203125,-528.3203125
-599.609375,-56.15234375,153.3203125,-159.66796875
-343.26171875,-48.33984375,160.64453125,-73.73046875
-106.93359375,-54.6875,150.390625,-419.921875
-310.05859375,-58.10546875,133.7890625,-550.78125
-557.6171875,-58.10546875,124.51171875,-192.3828125
-385.7421875,-49.31640625,140.13671875,18.5546875
-81.0546875,-38.57421875,136.71875,-270.5078125
-161.62109375,-55.17578125,111.328125,-493.1640625
-447.75390625,-51.26953125,115.72265625,-222.65625
-393.5546875,-43.9453125,130.37109375,83.49609375
-58.59375,-57.12890625,108.88671875,-83.0078125
-1.46484375,-71.77734375,82.51953125,-373.046875
-294.43359375,-68.84765625,85.9375,-229.4921875
-379.8828125,-58.10546875,87.890625,127.44140625
-52.24609375,-66.40625,67.3828125,91.30859375
135.25390625,-83.49609375,41.50390625,-223.6328125
-120.60546875,-82.51953125,48.33984375,-220.703125
-308.59375,-64.453125,79.1015625,135.7421875
-52.24609375,-64.453125,70.3125,256.34765625
207.03125,-84.47265625,38.0859375,-73.73046875
24.4140625,-89.35546875,31.73828125,-229.4921875
-239.74609375,-83.49609375,38.57421875,88.8671875
-81.54296875,-85.9375,32.71484375,315.4296875
225.09765625,-85.44921875,31.73828125,60.546875
150.390625,-83.984375,33.203125,-215.33203125
-148.92578125,-88.37890625,37.59765625,-0.48828125
-124.51171875,-94.7265625,39.0625,326.66015625
201.171875,-96.6796875,30.76171875,192.87109375
264.16015625,-95.703125,25.390625,-142.578125
-36.1328125,-97.16796875,35.15625,-76.66015625
-144.53125,-98.6328125,50.78125,278.3203125
151.85546875,-99.609375,42.96875,283.69140625
326.171875,-88.8671875,43.9453125,-83.49609375
62.5,-83.984375,55.17578125,-161.1328125
-174.31640625,-88.37890625,53.7109375,183.59375
40.0390625,-84.47265625,53.7109375,322.75390625
296.875,-82.51953125,56.15234375,-6.8359375
117.67578125,-85.44921875,53.7109375,-218.26171875
-183.59375,-91.796875,54.19921875,70.3125
-82.03125,-98.14453125,53.7109375,323.2421875
219.7265625,-84.9609375,57.6171875,69.82421875
163.0859375,-75.68359375,65.91796875,-235.3515625
-157.2265625,-93.75,50.78125,-36.1328125
-199.21875,-97.16796875,51.7578125,286.1328125
101.5625,-82.03125,73.73046875,141.6015625
195.80078125,-84.9609375,59.5703125,-206.0546875
-113.28125,-86.9140625,57.12890625,-159.1796875
-273.92578125,-79.1015625,75.1953125,196.77734375
1.46484375,-76.171875,70.80078125,223.14453125
208.49609375,-83.49609375,53.22265625,-138.18359375
-26.85546875,-88.8671875,45.41015625,-244.62890625
-270.99609375,-85.44921875,62.01171875,90.8203125
-69.82421875,-75.1953125,74.70703125,258.30078125
228.02734375,-70.80078125,63.4765625,-49.31640625
103.515625,-81.54296875,54.6875,-271.484375
-195.3125,-66.40625,80.56640625,-15.625
-112.79296875,-52.24609375,93.26171875,254.39453125
215.8203125,-66.40625,74.70703125,49.31640625
212.40234375,-71.2890625,69.82421875,-269.04296875
-106.4453125,-73.2421875,77.1484375,-121.58203125
-155.76171875,-79.58984375,79.58984375,221.6796875
173.828125,-86.9140625,68.84765625,160.64453125
282.71484375,-87.40234375,61.03515625,-203.125
-52.24609375,-87.890625,67.3828125,-214.84375
-245.1171875,-92.28515625,71.2890625,147.94921875
19.53125,-94.7265625,63.96484375,221.6796875
231.93359375,-96.19140625,63.96484375,-125.0
-0.9765625,-78.125,85.44921875,-287.59765625
-267.578125,-75.68359375,90.33203125,42.96875
-98.14453125,-78.125,88.37890625,261.71875
194.82421875,-72.75390625,88.37890625,-20.99609375
89.84375,-67.87109375,90.8203125,-286.62109375
-214.35546875,-70.80078125,90.33203125,-37.59765625
-183.59375,-74.70703125,91.796875,259.765625
126.46484375,-76.66015625,90.8203125,59.5703125
151.85546875,-87.40234375,73.73046875,-277.83203125
-161.62109375,-89.84375,78.61328125,-150.390625
-256.34765625,-88.37890625,86.42578125,207.51953125
45.41015625,-73.2421875,95.21484375,143.5546875
209.9609375,-76.66015625,86.9140625,-226.5625
-62.5,-90.8203125,77.63671875,-257.8125
-262.20703125,-81.0546875,94.23828125,94.7265625
-5.37109375,-67.87109375,98.14453125,199.70703125
251.953125,-69.3359375,87.890625,-136.23046875
51.26953125,-81.54296875,81.54296875,-306.640625
-230.46875,-74.21875,84.47265625,1.46484375
-85.44921875,-65.91796875,89.35546875,212.890625
221.19140625,-77.1484375,80.078125,-55.6640625
139.6484375,-91.30859375,57.6171875,-307.6171875
-188.4765625,-88.8671875,70.3125,-94.7265625
-178.7109375,-69.82421875,106.93359375,202.1484375
138.671875,-73.73046875,97.16796875,47.8515625
188.96484375,-80.078125,84.47265625,-290.0390625
-120.60546875,-82.03125,85.9375,-199.21875
-247.55859375,-73.73046875,99.609375,152.83203125
39.0625,-68.84765625,99.12109375,144.04296875
208.0078125,-78.125,81.54296875,-211.42578125
-62.5,-74.70703125,84.9609375,-289.0625
-291.9921875,-72.75390625,88.37890625,58.10546875
-67.3828125,-75.1953125,88.8671875,208.0078125
206.0546875,-85.44921875,74.21875,-88.37890625
36.62109375,-77.63671875,76.66015625,-301.7578125
-260.25390625,-65.4296875,95.21484375,-37.59765625
-151.85546875,-76.66015625,89.35546875,216.796875
152.83203125,-79.58984375,80.078125,-26.3671875
108.88671875,-73.2421875,79.1015625,-326.171875
-195.3125,-69.3359375,88.8671875,-139.16015625
-225.09765625,-73.73046875,94.23828125,193.84765625
81.54296875,-73.73046875,88.37890625,73.73046875
174.31640625,-69.82421875,84.9609375,-275.390625
-119.62890625,-82.51953125,79.1015625,-221.6796875
-247.0703125,-98.14453125,73.73046875,178.7109375
32.71484375,-83.984375,76.171875,224.12109375
179.6875,-61.03515625,87.890625,-196.77734375
-97.65625,-76.171875,76.66015625,-334.47265625
-327.63671875,-82.51953125,69.3359375,28.3203125
-131.34765625,-70.80078125,82.03125,210.9375
132.8125,-69.82421875,80.078125,-105.46875
-12.6953125,-70.80078125,62.98828125,-335.44921875
-322.75390625,-73.2421875,63.96484375,-73.73046875
-244.62890625,-66.40625,73.73046875,208.0078125
83.984375,-70.80078125,66.40625,9.27734375
83.0078125,-85.44921875,45.8984375,-306.640625
-218.75,-80.078125,48.828125,-147.4609375
-260.25390625,-69.82421875,70.3125,202.63671875
59.5703125,-65.91796875,77.1484375,110.83984375
188.96484375,-71.77734375,65.91796875,-249.0234375
-92.28515625,-79.58984375,57.12890625,-230.46875
-280.76171875,-66.40625,82.03125,115.72265625
-23.4375,-62.01171875,89.84375,170.8984375
214.35546875,-78.125,64.94140625,-167.48046875
1.46484375,-90.33203125,57.6171875,-309.5703125
-257.8125,-83.0078125,75.68359375,2.44140625
-90.8203125,-78.61328125,76.66015625,201.171875
206.54296875,-89.35546875,56.640625,-79.1015625
103.02734375,-93.75,48.33984375,-327.1484375
-200.68359375,-79.58984375,67.3828125,-75.68359375
-159.66796875,-65.91796875,83.984375,217.28515625
147.4609375,-81.54296875,57.12890625,34.66796875
166.50390625,-91.796875,40.0390625,-289.0625
-150.390625,-73.2421875,67.3828125,-184.5703125
-233.88671875,-73.2421875,78.125,163.0859375
63.96484375,-82.03125,73.2421875,117.1875
213.37890625,-79.58984375,63.96484375,-242.67578125
-57.12890625,-77.63671875,72.265625,-276.3671875
-260.7421875,-82.51953125,76.171875,80.56640625
-17.08984375,-81.0546875,76.66015625,196.2890625
235.3515625,-85.9375,75.1953125,-129.8828125
40.0390625,-90.8203125,66.40625,-296.875
-233.88671875,-81.54296875,74.70703125,9.765625
-90.33203125,-86.42578125,74.21875,255.859375
198.2421875,-83.0078125,79.1015625,-16.6015625
118.65234375,-74.21875,79.1015625,-313.4765625
-188.96484375,-85.9375,67.3828125,-91.796875
-184.08203125,-82.03125,80.56640625,225.09765625
120.1171875,-71.77734375,89.84375,73.2421875
178.22265625,-76.66015625,76.171875,-267.08984375
-126.953125,-83.49609375,67.87109375,-186.5234375
-250.48828125,-84.47265625,80.56640625,163.0859375
35.15625,-86.9140625,76.66015625,152.83203125
213.37890625,-89.35546875,67.87109375,-207.03125
-40.0390625,-98.6328125,57.12890625,-271.484375
-275.390625,-93.75,72.75390625,79.58984375
-49.31640625,-74.21875,102.5390625,209.9609375
240.234375,-79.58984375,72.75390625,-98.14453125
66.89453125,-87.40234375,58.10546875,-292.48046875
-255.859375,-86.9140625,90.8203125,-37.109375
-165.52734375,-77.1484375,107.91015625,198.2421875
138.671875,-77.1484375,89.84375,-30.2734375
86.9140625,-89.84375,78.61328125,-331.54296875
-231.4453125,-95.703125,86.9140625,-154.78515625
-252.9296875,-93.75,93.26171875,182.6171875
58.59375,-97.16796875,87.890625,72.75390625
151.3671875,-103.02734375,74.70703125,-256.34765625
-141.6015625,-86.9140625,88.8671875,-216.30859375
-293.45703125,-77.63671875,104.00390625,121.58203125
-13.671875,-84.9609375,89.84375,159.66796875
187.01171875,-88.37890625,74.21875,-189.453125
-61.5234375,-88.8671875,79.1015625,-302.734375
-298.33984375,-83.0078125,88.8671875,32.2265625
-102.5390625,-85.9375,85.44921875,210.44921875
177.24609375,-82.03125,86.42578125,-101.5625
39.0625,-79.1015625,82.03125,-313.4765625
-258.7890625,-83.49609375,78.125,-42.96875
-174.8046875,-90.8203125,76.66015625,223.14453125
138.18359375,-88.37890625,72.265625,24.90234375
130.859375,-66.89453125,85.9375,-303.22265625
-169.921875,-70.3125,88.8671875,-155.2734375
-228.515625,-74.70703125,85.9375,183.10546875
70.3125,-68.84765625,89.84375,97.16796875
200.68359375,-65.4296875,83.49609375,-250.9765625
-84.9609375,-70.80078125,76.171875,-237.79296875
-261.23046875,-70.3125,90.33203125,124.0234375
10.25390625,-69.3359375,95.703125,193.359375
233.3984375,-80.078125,80.56640625,-152.83203125
12.20703125,-84.47265625,73.2421875,-294.43359375
-243.65234375,-89.84375,71.77734375,42.48046875
-73.2421875,-80.56640625,86.9140625,238.28125
217.7734375,-70.3125,96.6796875,-69.82421875
104.98046875,-79.58984375,76.66015625,-320.80078125
-198.2421875,-80.56640625,81.54296875,-79.58984375
-147.4609375,-68.84765625,104.98046875,213.8671875
163.57421875,-72.265625,94.23828125,24.4140625
179.19921875,-79.1015625,72.75390625,-295.8984375
-137.20703125,-76.66015625,79.1015625,-167.48046875
-232.91015625,-72.265625,93.26171875,174.31640625
62.01171875,-72.75390625,87.890625,121.58203125
218.26171875,-88.37890625,64.453125,-216.796875
-65.91796875,-93.75,64.94140625,-240.234375
-279.78515625,-78.125,100.09765625,79.1015625
-33.69140625,-73.2421875,102.05078125,174.31640625
208.984375,-76.66015625,76.66015625,-153.3203125
10.25390625,-72.265625,74.21875,-329.58984375
-262.20703125,-66.40625,93.26171875,-22.94921875
-120.1171875,-71.2890625,99.12109375,214.35546875
176.26953125,-77.1484375,84.47265625,-49.31640625
105.95703125,-74.21875,74.70703125,-323.2421875
-200.68359375,-62.98828125,86.9140625,-104.4921875
-202.1484375,-68.359375,86.42578125,207.03125
104.4921875,-86.42578125,72.75390625,51.7578125
167.48046875,-84.9609375,69.3359375,-286.1328125
-134.27734375,-79.1015625,71.77734375,-203.61328125
-253.90625,-84.9609375,75.1953125,147.4609375
37.109375,-90.8203125,77.63671875,147.4609375
214.35546875,-84.47265625,88.37890625,-208.984375
-40.0390625,-75.1953125,85.9375,-281.73828125
-259.765625,-83.49609375,79.1015625,61.5234375
-41.9921875,-84.9609375,87.40234375,200.1953125
215.8203125,-82.03125,85.44921875,-124.51171875
44.43359375,-91.30859375,72.265625,-322.265625
-237.79296875,-93.75,71.2890625,-27.34375
-122.55859375,-97.16796875,74.70703125,225.09765625
194.82421875,-97.16796875,84.47265625,2.44140625
183.59375,-87.890625,88.37890625,-271.484375
-140.625,-89.35546875,70.3125,-74.21875
-166.015625,-86.42578125,70.3125,183.59375
151.3671875,-70.3125,74.70703125,13.18359375
206.54296875,-80.078125,52.24609375,-265.625
-82.03125,-78.61328125,57.12890625,-211.9140625
-234.86328125,-70.80078125,73.73046875,125.9765625
41.50390625,-72.75390625,66.89453125,156.25
244.62890625,-72.75390625,51.7578125,-188.96484375
-0.48828125,-77.1484375,44.43359375,-302.24609375
-242.67578125,-76.171875,51.7578125,28.80859375
-51.26953125,-72.265625,62.01171875,211.9140625
224.609375,-78.125,50.78125,-88.8671875
81.54296875,-85.44921875,37.109375,-306.640625
-232.91015625,-71.77734375,59.08203125,-56.640625
-159.66796875,-60.05859375,79.58984375,204.1015625
150.87890625,-67.3828125,66.89453125,4.39453125
141.6015625,-70.3125,60.05859375,-299.31640625
-169.921875,-70.80078125,67.87109375,-153.3203125
-232.421875,-66.89453125,77.1484375,167.96875
86.9140625,-71.2890625,63.96484375,84.47265625
202.1484375,-78.125,48.33984375,-250.0
-91.796875,-77.63671875,51.7578125,-233.3984375
-253.41796875,-69.82421875,66.89453125,104.4921875
4.8828125,-73.73046875,59.5703125,181.640625
217.7734375,-76.66015625,49.31640625,-151.85546875
-18.06640625,-67.3828125,63.4765625,-314.94140625
-278.3203125,-71.77734375,66.40625,4.39453125
-103.515625,-67.87109375,62.98828125,214.84375
185.05859375,-62.01171875,60.546875,-69.82421875
104.4921875,-59.08203125,63.96484375,-323.2421875
-150.390625,-60.546875,70.3125,-79.1015625
-107.421875,-65.4296875,75.1953125,223.14453125
167.96875,-60.546875,77.63671875,45.41015625
162.59765625,-64.94140625,65.4296875,-276.3671875
-155.76171875,-70.80078125,64.94140625,-156.73828125
-252.9296875,-75.1953125,68.84765625,197.265625
33.69140625,-70.3125,81.54296875,139.6484375
184.5703125,-62.01171875,83.984375,-218.26171875
-82.51953125,-68.84765625,74.70703125,-235.3515625
-291.015625,-75.68359375,80.078125,109.375
-54.6875,-71.77734375,86.42578125,201.171875
201.171875,-67.87109375,80.56640625,-134.765625
23.4375,-75.1953125,68.359375,-301.7578125
-240.72265625,-74.21875,75.1953125,0.9765625
-89.35546875,-70.80078125,79.58984375,218.75
231.4453125,-77.1484375,67.87109375,-44.43359375
175.78125,-88.37890625,50.78125,-304.6875
-125.48828125,-86.42578125,61.03515625,-90.33203125
-115.234375,-71.77734375,95.703125,202.63671875
217.7734375,-72.265625,84.9609375,58.59375
290.52734375,-84.47265625,66.40625,-258.7890625
-10.7421875,-91.796875,73.2421875,-163.0859375
-140.13671875,-73.2421875,83.0078125,168.9453125
100.09765625,-64.453125,70.3125,121.09375
258.30078125,-67.87109375,48.828125,-234.375
19.04296875,-54.6875,47.8515625,-285.64453125
-207.03125,-52.734375,53.22265625,63.96484375
1.953125,-60.546875,45.8984375,195.3125
252.44140625,-62.01171875,30.76171875,-109.86328125
75.1953125,-53.22265625,40.0390625,-293.45703125
-201.66015625,-45.8984375,54.19921875,-9.27734375
-94.7265625,-49.31640625,52.734375,250.0
194.82421875,-49.31640625,45.8984375,0.0
166.9921875,-36.62109375,31.73828125,-291.9921875
-138.18359375,-29.78515625,36.62109375,-112.79296875
-184.5703125,-39.0625,40.0390625,199.21875
129.39453125,-35.15625,24.4140625,91.796875
231.93359375,-24.90234375,23.4375,-255.859375
-44.43359375,-28.80859375,28.3203125,-187.98828125
-183.59375,-42.48046875,19.53125,198.73046875
80.56640625,-31.25,27.83203125,203.125
289.55078125,-18.06640625,33.69140625,-159.66796875
49.31640625,-24.90234375,26.3671875,-269.53125
-209.47265625,-34.66796875,25.390625,67.3828125
-20.5078125,-34.66796875,26.85546875,240.234375
264.6484375,-18.5546875,34.66796875,-55.6640625
123.53515625,-20.5078125,33.203125,-275.87890625
-185.546875,-31.25,31.73828125,-26.3671875
-113.28125,-29.78515625,38.57421875,245.60546875
193.84765625,-26.85546875,39.55078125,32.2265625
181.640625,-32.2265625,21.484375,-276.85546875
-134.765625,-40.0390625,20.5078125,-111.81640625
-200.1953125,-37.59765625,42.48046875,219.7265625
99.609375,-31.25,43.9453125,128.41796875
215.33203125,-36.1328125,33.69140625,-213.8671875
-72.75390625,-46.38671875,30.76171875,-198.73046875
-263.18359375,-39.55078125,54.19921875,142.08984375
-7.32421875,-32.2265625,55.17578125,204.1015625
206.54296875,-43.45703125,30.76171875,-129.39453125
-30.2734375,-47.8515625,27.34375,-267.578125
-301.7578125,-42.96875,47.8515625,36.1328125
-127.44140625,-47.36328125,52.734375,231.4453125
128.90625,-53.22265625,38.57421875,-38.0859375
-7.32421875,-66.40625,32.71484375,-263.671875
-274.90234375,-60.05859375,46.38671875,-32.2265625
-219.23828125,-41.50390625,68.359375,229.98046875
93.26171875,-60.546875,46.38671875,58.59375
103.02734375,-79.58984375,30.76171875,-254.8828125
-217.28515625,-66.89453125,57.12890625,-158.203125
-309.08203125,-60.546875,60.05859375,182.12890625
-19.04296875,-64.453125,51.26953125,139.6484375
123.046875,-69.82421875,52.734375,-210.44921875
-151.3671875,-73.73046875,62.01171875,-229.4921875
-358.88671875,-76.171875,68.359375,127.9296875
-129.39453125,-75.68359375,63.4765625,214.35546875
111.81640625,-74.21875,51.7578125,-122.0703125
-90.8203125,-68.359375,56.640625,-286.1328125
-383.30078125,-61.5234375,61.5234375,6.34765625
-244.140625,-57.6171875,68.359375,256.34765625
43.45703125,-42.48046875,71.77734375,-5.859375
-36.1328125,-39.55078125,61.5234375,-290.52734375
-332.51953125,-51.26953125,53.7109375,-71.2890625
-316.40625,-62.98828125,58.59375,229.00390625
8.30078125,-63.96484375,64.94140625,71.77734375
74.70703125,-70.80078125,49.8046875,-252.44140625
-221.6796875,-71.2890625,50.29296875,-167.48046875
-327.63671875,-47.8515625,73.73046875,191.40625
-25.390625,-55.17578125,71.77734375,189.453125
150.390625,-71.77734375,55.17578125,-169.43359375
-101.5625,-82.51953125,43.45703125,-215.33203125
-316.89453125,-78.61328125,60.05859375,128.41796875
-101.5625,-67.3828125,81.0546875,230.46875
175.78125,-75.1953125,63.4765625,-80.078125
29.78515625,-76.66015625,54.19921875,-270.01953125
-252.9296875,-69.3359375,67.87109375,-0.48828125
-138.671875,-69.3359375,77.1484375,253.41796875
171.38671875,-79.1015625,60.546875,30.76171875
126.953125,-84.9609375,49.8046875,-255.859375
-176.7578125,-77.63671875,67.3828125,-79.58984375
-197.75390625,-77.63671875,71.77734375,242.1875
107.91015625,-82.03125,63.4765625,124.51171875
203.125,-93.26171875,42.48046875,-195.80078125
-80.56640625,-88.8671875,55.6640625,-148.92578125
-220.21484375,-67.87109375,88.37890625,176.7578125
64.453125,-69.82421875,74.70703125,209.47265625
289.0625,-69.82421875,61.5234375,-127.44140625
60.05859375,-63.4765625,65.91796875,-238.76953125
-179.6875,-67.3828125,73.73046875,91.30859375
30.2734375,-77.63671875,70.3125,270.99609375
304.6875,-78.125,62.5,-31.73828125
163.57421875,-74.21875,65.4296875,-257.32421875
-130.37109375,-78.125,64.94140625,2.9296875
-56.640625,-91.30859375,60.546875,280.76171875
243.1640625,-94.7265625,58.59375,68.84765625
228.02734375,-83.49609375,69.3359375,-255.37109375
-69.82421875,-92.7734375,72.75390625,-100.5859375
-123.53515625,-101.07421875,73.73046875,234.86328125
184.5703125,-90.33203125,78.61328125,152.34375
317.87109375,-82.51953125,69.3359375,-199.70703125
34.1796875,-92.7734375,59.08203125,-193.359375
-144.53125,-96.19140625,72.265625,162.59765625
118.1640625,-94.7265625,76.171875,229.98046875
348.6328125,-100.5859375,64.453125,-111.328125
133.7890625,-105.46875,62.98828125,-246.58203125
-127.44140625,-116.2109375,59.5703125,91.796875
38.57421875,-98.14453125,72.265625,282.2265625
319.3359375,-83.49609375,79.58984375,-27.34375
212.890625,-102.05078125,58.10546875,-278.80859375
-88.8671875,-107.91015625,61.5234375,-40.52734375
-58.10546875,-98.14453125,82.51953125,249.51171875
248.046875,-101.07421875,71.2890625,70.80078125
266.6015625,-115.234375,49.31640625,-248.53515625
-49.31640625,-110.3515625,65.4296875,-134.27734375
-142.08984375,-103.02734375,85.44921875,198.2421875
145.5078125,-104.98046875,78.125,142.08984375
288.57421875,-122.0703125,53.7109375,-191.89453125
10.7421875,-125.9765625,55.17578125,-217.28515625
-200.68359375,-105.95703125,77.63671875,101.5625
30.2734375,-111.81640625,81.0546875,207.51953125
278.3203125,-130.37109375,61.5234375,-98.6328125
90.8203125,-120.60546875,63.96484375,-272.94921875
-192.87109375,-104.4921875,85.44921875,13.671875
-58.10546875,-111.328125,78.61328125,247.0703125
237.3046875,-114.2578125,62.5,-10.7421875
160.64453125,-111.81640625,63.4765625,-282.71484375
-146.484375,-117.67578125,72.75390625,-73.73046875
-139.6484375,-110.3515625,78.125,229.98046875
174.31640625,-101.07421875,74.21875,90.8203125
231.4453125,-103.515625,62.5,-244.140625
-79.1015625,-101.5625,60.546875,-175.78125
-209.47265625,-100.5859375,74.70703125,161.1328125
80.078125,-107.91015625,74.70703125,165.0390625
247.55859375,-103.515625,76.171875,-186.03515625
-27.34375,-103.02734375,75.1953125,-267.08984375
-236.81640625,-103.02734375,72.265625,83.49609375
-10.25390625,-97.65625,73.73046875,227.05078125
233.3984375,-91.796875,72.265625,-92.7734375
62.01171875,-92.7734375,71.77734375,-296.38671875
-206.0546875,-104.4921875,68.359375,-23.4375
-98.14453125,-109.375,66.89453125,226.5625
181.640625,-108.3984375,66.89453125,-6.8359375
132.8125,-102.05078125,68.84765625,-294.921875
-179.6875,-107.91015625,53.7109375,-96.19140625
-207.51953125,-114.2578125,52.734375,218.75
88.37890625,-97.65625,76.171875,83.49609375
174.8046875,-101.5625,64.453125,-242.67578125
-109.86328125,-99.609375,64.94140625,-190.4296875
-267.578125,-91.30859375,74.70703125,152.83203125
-17.08984375,-104.4921875,70.3125,178.7109375
162.109375,-123.046875,65.91796875,-171.875
-91.796875,-130.37109375,61.5234375,-289.55078125
-345.703125,-122.0703125,68.84765625,37.109375
-147.94921875,-116.2109375,79.1015625,198.2421875
127.44140625,-118.65234375,69.82421875,-99.12109375
-17.578125,-118.65234375,52.734375,-300.29296875
-303.7109375,-104.4921875,76.66015625,-55.17578125
-222.65625,-95.21484375,94.23828125,201.66015625
92.7734375,-104.98046875,72.75390625,9.765625
84.47265625,-106.93359375,62.5,-291.50390625
-233.3984375,-101.5625,68.84765625,-151.85546875
-299.31640625,-100.5859375,75.1953125,190.4296875
21.484375,-103.515625,70.80078125,106.4453125
113.28125,-114.2578125,63.4765625,-211.42578125
-197.265625,-120.60546875,62.01171875,-189.453125
-327.63671875,-113.28125,71.77734375,112.3046875
-74.70703125,-117.1875,61.5234375,193.84765625
140.13671875,-114.74609375,55.17578125,-129.39453125
-67.3828125,-92.7734375,80.56640625,-284.66796875
-321.2890625,-97.16796875,74.70703125,23.4375
-164.0625,-96.19140625,77.1484375,229.98046875
121.09375,-92.28515625,74.21875,-48.828125
12.20703125,-94.7265625,65.4296875,-306.15234375
-284.1796875,-95.21484375,72.75390625,-59.08203125
-236.328125,-89.35546875,81.0546875,233.3984375
67.3828125,-87.890625,78.125,47.8515625
93.26171875,-96.6796875,65.91796875,-267.08984375
-207.51953125,-101.07421875,70.3125,-153.80859375
-300.78125,-102.05078125,76.66015625,197.265625
-12.20703125,-85.9375,85.44921875,145.99609375
137.20703125,-77.1484375,83.49609375,-216.30859375
-123.046875,-89.84375,68.84765625,-239.2578125
-310.05859375,-86.42578125,82.03125,111.81640625
-74.21875,-83.49609375,88.8671875,214.35546875
165.0390625,-89.35546875,69.3359375,-121.09375
-20.99609375,-95.703125,62.5,-291.015625
-295.41015625,-92.28515625,74.70703125,3.41796875
-157.2265625,-83.984375,79.58984375,224.609375
137.20703125,-97.65625,64.94140625,-30.76171875
59.08203125,-108.88671875,45.41015625,-293.45703125
-244.140625,-98.14453125,52.24609375,-85.9375
-239.74609375,-82.03125,92.7734375,203.125
74.21875,-90.8203125,88.8671875,62.98828125
141.11328125,-93.75,69.82421875,-263.18359375
-165.0390625,-89.35546875,74.21875,-191.40625
-291.50390625,-84.47265625,83.0078125,139.6484375
-5.37109375,-87.40234375,75.1953125,133.30078125
178.22265625,-97.65625,54.6875,-199.21875
-73.73046875,-91.796875,63.96484375,-274.4140625
-288.0859375,-79.58984375,83.0078125,61.5234375
-62.98828125,-83.0078125,73.2421875,211.42578125
200.1953125,-100.09765625,53.22265625,-83.49609375
44.43359375,-89.84375,60.05859375,-285.64453125
-238.76953125,-67.87109375,87.40234375,-31.73828125
-138.18359375,-76.171875,84.47265625,224.12109375
163.0859375,-84.47265625,71.2890625,-2.44140625
109.86328125,-90.33203125,65.91796875,-296.875
-209.9609375,-92.28515625,71.77734375,-118.65234375
-231.93359375,-92.7734375,71.2890625,201.171875
76.66015625,-91.30859375,70.3125,88.37890625
164.55078125,-84.9609375,72.265625,-247.55859375
-128.41796875,-87.890625,71.77734375,-206.54296875
-276.85546875,-98.6328125,69.3359375,157.71484375
-16.11328125,-100.09765625,69.82421875,202.63671875
183.10546875,-86.42578125,77.63671875,-159.66796875
-52.734375,-81.54296875,80.078125,-271.484375
-314.94140625,-97.65625,73.2421875,60.05859375
-142.08984375,-96.19140625,77.63671875,224.12109375
131.8359375,-86.42578125,82.51953125,-80.078125
-1.46484375,-91.30859375,68.84765625,-303.22265625
-290.0390625,-90.8203125,74.21875,-46.38671875
-206.0546875,-86.9140625,86.42578125,217.7734375
113.76953125,-84.9609375,71.77734375,9.765625
144.04296875,-85.44921875,49.31640625,-276.85546875
-118.65234375,-86.9140625,48.828125,-102.5390625
-166.9921875,-104.4921875,78.61328125,225.09765625
119.62890625,-120.60546875,92.7734375,115.234375
230.95703125,-126.953125,81.0546875,-255.37109375
-44.43359375,-131.8359375,81.54296875,-241.2109375
-222.16796875,-125.9765625,107.91015625,106.4453125
16.6015625,-126.953125,120.1171875,150.87890625
228.515625,-140.13671875,106.4453125,-182.6171875
6.34765625,-146.484375,112.3046875,-300.29296875
-275.87890625,-144.04296875,134.765625,-5.37109375
-145.99609375,-154.296875,144.53125,160.64453125
119.140625,-164.55078125,133.30078125,-108.3984375
10.25390625,-164.0625,128.90625,-337.890625
-299.8046875,-154.296875,153.3203125,-108.3984375
-272.4609375,-150.390625,174.8046875,171.38671875
29.78515625,-175.29296875,154.78515625,2.9296875
41.9921875,-185.05859375,141.6015625,-295.41015625
-269.53125,-164.55078125,183.10546875,-191.40625
-356.93359375,-159.1796875,200.1953125,134.765625
-61.5234375,-165.0390625,185.05859375,102.05078125
104.4921875,-167.96875,182.12890625,-235.3515625
-162.59765625,-172.36328125,183.59375,-270.99609375
-364.2578125,-171.875,188.96484375,75.68359375
-114.2578125,-172.8515625,188.96484375,181.640625
124.51171875,-178.22265625,173.33984375,-145.01953125
-55.6640625,-178.22265625,177.734375,-300.29296875
-318.84765625,-172.36328125,191.40625,3.90625
-182.12890625,-175.78125,190.4296875,240.234375
115.234375,-167.96875,190.4296875,-14.6484375
55.6640625,-156.73828125,180.17578125,-283.203125
-239.2578125,-165.0390625,178.22265625,-71.77734375
-241.2109375,-162.109375,186.03515625,217.7734375
61.5234375,-152.34375,174.8046875,61.5234375
127.44140625,-146.484375,156.73828125,-260.25390625
-179.19921875,-146.97265625,149.4140625,-173.33984375
-300.78125,-141.11328125,153.80859375,153.3203125
-17.08984375,-134.765625,155.2734375,145.99609375
142.08984375,-136.71875,144.53125,-178.7109375
-109.86328125,-137.20703125,131.34765625,-227.5390625
-345.21484375,-127.9296875,137.6953125,111.328125
-140.13671875,-106.4453125,160.64453125,229.00390625
117.67578125,-102.5390625,149.90234375,-87.40234375
-54.6875,-109.86328125,131.34765625,-289.55078125
-341.30859375,-108.88671875,142.08984375,-11.23046875
-243.1640625,-104.4921875,147.94921875,245.60546875
51.7578125,-116.69921875,123.53515625,17.08984375
6.34765625,-125.48828125,122.0703125,-276.3671875
-298.828125,-115.234375,134.765625,-103.02734375
-314.453125,-111.81640625,135.25390625,214.35546875
-5.37109375,-118.1640625,131.8359375,103.515625
88.37890625,-119.62890625,115.234375,-212.40234375
-203.61328125,-101.5625,122.0703125,-187.98828125
-352.5390625,-91.796875,133.7890625,130.859375
-76.171875,-97.16796875,121.58203125,175.29296875
126.953125,-98.6328125,114.74609375,-164.0625
-117.67578125,-94.23828125,128.90625,-269.53125
-366.2109375,-91.796875,135.25390625,55.17578125
-174.8046875,-103.02734375,124.0234375,226.07421875
81.0546875,-105.95703125,113.28125,-59.08203125
-65.4296875,-102.5390625,105.95703125,-284.66796875
-336.42578125,-102.5390625,120.60546875,-32.71484375
-265.625,-108.88671875,115.234375,248.046875
13.18359375,-109.86328125,110.3515625,50.29296875
1.46484375,-89.84375,135.7421875,-261.71875
-296.875,-90.8203125,135.7421875,-114.2578125
-348.14453125,-93.75,132.8125,216.30859375
-33.69140625,-83.984375,135.25390625,136.23046875
101.07421875,-83.0078125,125.9765625,-197.75390625
-159.66796875,-96.6796875,117.67578125,-189.453125
-313.4765625,-98.14453125,126.46484375,145.99609375
-35.15625,-83.984375,142.578125,221.6796875
210.44921875,-79.58984375,131.8359375,-99.12109375
16.11328125,-80.56640625,121.09375,-226.5625
-235.3515625,-89.84375,116.69921875,89.84375
-66.40625,-85.9375,121.58203125,264.6484375
231.93359375,-72.75390625,128.90625,-35.15625
137.20703125,-76.66015625,111.81640625,-284.66796875
-164.55078125,-78.125,108.3984375,-51.26953125
-134.765625,-73.73046875,126.46484375,228.02734375
159.1796875,-76.171875,122.0703125,52.734375
174.31640625,-85.44921875,99.12109375,-252.44140625
-139.6484375,-87.40234375,100.5859375,-150.390625
-245.60546875,-78.125,121.58203125,177.24609375
44.921875,-74.70703125,121.09375,154.296875
189.453125,-96.6796875,91.30859375,-163.0859375
-79.1015625,-105.46875,95.21484375,-178.22265625
-279.296875,-74.21875,125.9765625,140.625
-79.1015625,-60.05859375,112.3046875,204.1015625
129.8828125,-78.125,81.0546875,-135.25390625
-26.3671875,-78.61328125,78.125,-275.87890625
-291.015625,-64.94140625,92.7734375,25.390625
-176.7578125,-74.21875,96.19140625,236.328125
133.30078125,-72.265625,84.47265625,-2.44140625
51.26953125,-69.3359375,75.68359375,-279.78515625
-254.39453125,-74.70703125,89.84375,-85.9375
-228.02734375,-73.73046875,98.6328125,228.02734375
87.890625,-78.125,89.84375,90.33203125
139.6484375,-81.54296875,79.58984375,-234.375
-164.55078125,-74.70703125,83.49609375,-159.1796875
-289.0625,-68.359375,95.703125,183.59375
2.44140625,-76.66015625,88.8671875,186.03515625
159.66796875,-69.3359375,89.84375,-141.11328125
-100.09765625,-70.80078125,86.9140625,-208.984375
-289.0625,-83.49609375,86.42578125,102.5390625
-77.1484375,-76.66015625,100.09765625,235.83984375
174.8046875,-73.73046875,96.19140625,-75.68359375
7.8125,-81.54296875,82.03125,-272.94921875
-271.484375,-86.42578125,82.03125,8.30078125
-167.48046875,-87.890625,85.44921875,261.71875
126.953125,-81.0546875,82.03125,26.3671875
88.8671875,-66.40625,92.7734375,-259.765625
-202.1484375,-77.1484375,80.56640625,-70.3125
-235.3515625,-86.42578125,83.0078125,245.1171875
60.546875,-70.3125,100.5859375,109.86328125
154.78515625,-75.68359375,78.61328125,-225.09765625
-132.8125,-79.58984375,76.66015625,-176.7578125
-272.94921875,-73.2421875,90.33203125,158.69140625
6.8359375,-73.73046875,88.8671875,194.3359375
208.49609375,-76.66015625,81.0546875,-144.04296875
-27.83203125,-77.63671875,83.984375,-232.421875
-268.5546875,-76.171875,92.28515625,98.6328125
-74.21875,-73.73046875,96.6796875,246.09375
193.359375,-78.125,83.49609375,-57.12890625
55.17578125,-90.33203125,67.87109375,-269.04296875
-232.421875,-80.56640625,94.7265625,-14.6484375
-155.2734375,-65.4296875,117.67578125,234.86328125
146.484375,-77.63671875,92.28515625,31.25
147.4609375,-78.125,85.44921875,-257.32421875
-154.78515625,-66.89453125,107.421875,-106.4453125
-220.703125,-71.2890625,107.91015625,211.9140625
83.984375,-80.078125,96.19140625,131.34765625
206.0546875,-81.0546875,83.49609375,-211.42578125
-73.2421875,-78.125,84.47265625,-203.125
-248.046875,-73.73046875,100.5859375,134.27734375
6.34765625,-80.078125,91.30859375,209.47265625
231.93359375,-88.8671875,81.0546875,-119.140625
24.90234375,-70.80078125,101.5625,-277.34375
-228.02734375,-62.5,112.3046875,28.80859375
-67.3828125,-69.3359375,106.4453125,226.5625
213.8671875,-73.73046875,102.05078125,-48.828125
112.3046875,-72.265625,104.00390625,-287.109375
-187.5,-75.1953125,109.86328125,-52.734375
-154.78515625,-76.171875,110.3515625,220.703125
157.2265625,-70.3125,105.95703125,45.41015625
185.546875,-76.171875,90.33203125,-259.765625
-119.140625,-78.61328125,86.42578125,-142.08984375
-210.44921875,-85.9375,84.47265625,202.1484375
67.87109375,-77.1484375,88.8671875,147.4609375
210.9375,-63.96484375,93.75,-210.44921875
-46.875,-70.3125,88.37890625,-229.4921875
-248.53515625,-67.87109375,94.7265625,106.93359375
-18.06640625,-62.5,102.5390625,202.63671875
221.6796875,-64.94140625,96.6796875,-109.86328125
22.4609375,-74.21875,82.51953125,-275.87890625
-258.7890625,-75.68359375,90.33203125,12.20703125
-125.9765625,-65.91796875,101.5625,232.421875
175.29296875,-68.359375,94.23828125,-10.25390625
101.5625,-83.984375,71.77734375,-266.6015625
-214.35546875,-83.49609375,79.58984375,-71.2890625
-215.33203125,-63.4765625,112.79296875,213.37890625
88.37890625,-69.3359375,99.12109375,63.4765625
150.390625,-69.3359375,83.49609375,-262.6953125
-155.2734375,-59.08203125,91.30859375,-187.98828125
-289.55078125,-61.03515625,103.515625,143.5546875
-1.953125,-68.359375,94.7265625,135.7421875
175.29296875,-72.75390625,84.47265625,-203.61328125
-78.61328125,-68.359375,93.26171875,-270.5078125
-299.8046875,-68.84765625,95.703125,69.3359375
-83.984375,-72.75390625,97.65625,191.40625
177.734375,-83.49609375,83.984375,-106.93359375
7.32421875,-74.21875,91.30859375,-267.578125
-264.16015625,-53.22265625,115.234375,-2.9296875
-164.0625,-64.94140625,99.609375,231.4453125
114.2578125,-78.125,84.47265625,-12.6953125
76.66015625,-71.2890625,83.984375,-288.57421875
-219.7265625,-63.4765625,94.23828125,-106.93359375
-235.83984375,-60.05859375,99.609375,215.33203125
66.40625,-63.4765625,90.33203125,109.375
160.64453125,-62.98828125,88.37890625,-228.02734375
-120.60546875,-62.01171875,87.890625,-185.546875
-272.4609375,-77.63671875,81.0546875,162.109375
-9.27734375,-77.1484375,85.44921875,198.2421875
187.01171875,-63.96484375,95.703125,-154.296875
-48.828125,-71.2890625,90.33203125,-260.7421875
-292.48046875,-77.63671875,83.984375,72.265625
-103.515625,-68.359375,97.65625,244.62890625
166.015625,-61.5234375,105.95703125,-58.10546875
24.90234375,-69.3359375,90.33203125,-283.203125
-266.6015625,-76.66015625,89.35546875,-23.4375
-190.91796875,-74.70703125,98.6328125,238.28125
111.328125,-67.3828125,96.19140625,24.90234375
108.3984375,-71.77734375,77.63671875,-270.5078125
-190.91796875,-80.56640625,76.66015625,-112.3046875
-243.1640625,-76.66015625,97.65625,208.0078125
66.40625,-69.3359375,97.65625,121.09375
197.75390625,-70.80078125,82.51953125,-210.9375
-76.171875,-82.03125,75.1953125,-199.70703125
-262.20703125,-73.2421875,98.6328125,126.46484375
-7.8125,-67.3828125,95.703125,187.5
221.6796875,-77.1484375,73.73046875,-126.953125
9.765625,-76.66015625,82.51953125,-269.53125
-253.90625,-76.171875,98.14453125,17.08984375
-98.14453125,-78.61328125,95.21484375,216.796875
188.96484375,-83.0078125,76.171875,-43.9453125
78.61328125,-85.9375,68.84765625,-280.2734375
-234.375,-77.63671875,82.03125,-58.59375
-196.77734375,-61.5234375,99.609375,219.7265625
113.28125,-75.1953125,82.51953125,58.10546875
136.23046875,-81.54296875,66.40625,-252.44140625
-167.48046875,-61.03515625,94.7265625,-151.85546875
-258.30078125,-66.89453125,97.16796875,180.17578125
27.83203125,-74.70703125,80.56640625,132.8125
170.8984375,-73.73046875,72.75390625,-212.890625
-98.14453125,-72.265625,79.58984375,-244.62890625
-293.9453125,-67.3828125,93.75,99.609375
-65.91796875,-73.73046875,86.42578125,189.94140625
170.8984375,-84.47265625,73.2421875,-125.0
-3.90625,-84.47265625,74.70703125,-275.87890625
-257.8125,-78.61328125,83.984375,8.30078125
-96.19140625,-75.1953125,84.47265625,246.09375
213.8671875,-61.03515625,91.796875,-12.6953125
156.73828125,-53.7109375,95.703125,-287.59765625
-119.62890625,-67.3828125,88.8671875,-73.2421875
-96.19140625,-69.82421875,97.65625,225.09765625
217.28515625,-65.91796875,94.23828125,76.66015625
275.87890625,-69.82421875,80.56640625,-245.1171875
-11.71875,-73.2421875,77.63671875,-157.71484375
-129.39453125,-73.2421875,86.9140625,180.6640625
140.625,-73.2421875,90.8203125,169.921875
306.640625,-76.171875,81.54296875,-168.9453125
51.7578125,-83.984375,71.2890625,-221.19140625
-177.734375,-83.49609375,75.68359375,115.234375
22.94921875,-64.453125,99.12109375,234.375
278.3203125,-65.91796875,98.6328125,-71.77734375
99.609375,-73.73046875,88.37890625,-265.13671875
-201.171875,-72.75390625,93.75,7.8125
-105.46875,-75.1953125,99.609375,247.0703125
190.4296875,-81.54296875,84.9609375,16.11328125
145.99609375,-87.40234375,74.70703125,-264.6484375
-147.4609375,-79.58984375,85.44921875,-84.47265625
-167.96875,-77.63671875,87.40234375,229.98046875
125.48828125,-80.56640625,83.49609375,116.69921875
226.07421875,-90.33203125,65.91796875,-201.171875
-61.5234375,-77.63671875,83.0078125,-160.15625
-212.890625,-66.89453125,106.93359375,162.109375
61.5234375,-78.125,90.33203125,190.91796875
268.5546875,-82.03125,71.77734375,-138.18359375
38.0859375,-74.70703125,82.03125,-243.1640625
-194.3359375,-68.84765625,95.21484375,68.84765625
-3.41796875,-76.66015625,87.890625,238.76953125
260.25390625,-79.1015625,81.0546875,-55.6640625
118.1640625,-79.58984375,79.58984375,-271.97265625
-176.7578125,-81.0546875,86.9140625,-16.11328125
-113.28125,-90.33203125,85.9375,235.83984375
180.17578125,-89.35546875,69.82421875,27.83203125
161.1328125,-67.3828125,85.44921875,-289.0625
-148.4375,-65.91796875,96.6796875,-136.23046875
-199.21875,-72.75390625,93.26171875,184.5703125
111.81640625,-72.75390625,96.19140625,94.7265625
259.27734375,-75.1953125,90.8203125,-242.1875
0.48828125,-82.03125,82.03125,-239.74609375
-166.015625,-81.54296875,91.796875,99.609375
88.37890625,-68.84765625,96.19140625,167.96875
294.43359375,-65.91796875,76.171875,-172.36328125
57.6171875,-66.40625,82.03125,-299.8046875
-261.23046875,-73.73046875,91.796875,0.48828125
-191.89453125,-76.66015625,97.16796875,157.71484375
14.6484375,-70.3125,101.07421875,-138.671875
-143.06640625,-78.125,86.42578125,-403.80859375
-486.328125,-79.58984375,100.5859375,-192.87109375
-495.1171875,-64.453125,133.30078125,66.89453125
-220.21484375,-74.70703125,128.90625,-129.39453125
-191.89453125,-93.26171875,112.79296875,-417.48046875
-490.234375,-92.7734375,129.39453125,-297.8515625
-604.00390625,-85.44921875,154.78515625,2.9296875
-283.203125,-88.37890625,156.25,-20.5078125
-15.13671875,-111.328125,134.27734375,-250.0
-308.59375,-117.67578125,139.16015625,-268.06640625
-700.1953125,-99.609375,178.22265625,-68.84765625
-510.7421875,-100.5859375,187.01171875,-0.9765625
-91.30859375,-107.91015625,182.12890625,-188.4765625
-193.84765625,-107.91015625,188.96484375,-275.87890625
-641.11328125,-109.375,200.68359375,-102.05078125
-618.1640625,-112.3046875,198.73046875,25.390625
-131.34765625,-114.2578125,197.265625,-90.33203125
-14.6484375,-104.4921875,203.61328125,-187.5
-435.05859375,-107.421875,204.1015625,-25.390625
-552.24609375,-118.1640625,196.77734375,169.921875
-76.66015625,-114.74609375,187.5,122.0703125
179.6875,-105.46875,186.03515625,-23.4375
-196.77734375,-101.5625,178.22265625,46.875
-523.4375,-105.95703125,161.62109375,238.28125
-241.69921875,-103.02734375,151.3671875,233.88671875
125.9765625,-87.40234375,155.2734375,73.2421875
-106.4453125,-81.54296875,152.83203125,85.44921875
-557.12890625,-85.9375,130.37109375,279.78515625
-451.171875,-84.47265625,111.328125,331.54296875
-23.4375,-70.80078125,116.69921875,157.71484375
-84.9609375,-67.87109375,111.81640625,56.640625
-566.89453125,-81.0546875,93.75,208.984375
-623.046875,-77.63671875,79.1015625,327.1484375
-150.87890625,-61.03515625,86.9140625,197.265625
1.46484375,-57.6171875,83.984375,70.3125
-451.66015625,-81.0546875,49.31640625,182.12890625
-730.95703125,-85.44921875,42.96875,289.0625
-366.2109375,-60.05859375,70.3125,151.85546875
-43.9453125,-67.87109375,61.03515625,-23.92578125
-358.88671875,-79.1015625,50.78125,-0.48828125
-748.046875,-72.75390625,53.22265625,133.30078125
-478.515625,-66.40625,53.22265625,91.796875
20.99609375,-74.21875,52.24609375,-112.79296875
-106.93359375,-83.984375,49.8046875,-173.828125
-501.46484375,-94.23828125,44.43359375,-57.6171875
-326.66015625,-96.19140625,41.9921875,-31.25
221.19140625,-92.7734375,44.43359375,-194.3359375
219.7265625,-102.05078125,38.0859375,-289.0625
-227.05078125,-95.703125,50.29296875,-163.0859375
-229.00390625,-89.35546875,57.12890625,-86.9140625
257.32421875,-97.65625,52.24609375,-217.28515625
514.6484375,-90.8203125,60.05859375,-350.5859375
191.89453125,-89.84375,60.546875,-274.90234375
-66.40625,-99.12109375,62.5,-117.67578125
307.6171875,-96.6796875,58.10546875,-155.76171875
686.03515625,-100.5859375,52.24609375,-294.43359375
403.3203125,-110.3515625,50.29296875,-242.1875
1.46484375,-106.4453125,54.19921875,-60.05859375
224.609375,-109.86328125,49.8046875,-10.7421875
807.12890625,-114.74609375,47.36328125,-131.34765625
763.671875,-102.5390625,75.1953125,-145.99609375
261.71875,-107.91015625,71.77734375,75.68359375
308.10546875,-115.234375,65.91796875,229.98046875
733.88671875,-108.3984375,83.984375,133.30078125
760.7421875,-108.3984375,84.47265625,65.4296875
320.80078125,-110.83984375,77.1484375,242.1875
88.37890625,-111.328125,80.078125,385.25390625
483.88671875,-112.3046875,83.49609375,292.48046875
716.796875,-124.0234375,74.21875,177.734375
289.0625,-133.7890625,61.03515625,263.671875
-42.96875,-144.53125,55.6640625,448.73046875
206.54296875,-134.27734375,69.82421875,408.203125
388.671875,-119.140625,77.63671875,223.14453125
20.01953125,-132.32421875,57.6171875,243.65234375
-371.09375,-134.765625,52.734375,417.48046875
-202.63671875,-127.9296875,71.2890625,417.96875
202.1484375,-130.37109375,76.66015625,229.98046875
111.328125,-143.06640625,65.91796875,189.453125
-369.62890625,-149.4140625,62.01171875,375.48828125
-451.171875,-139.6484375,74.21875,474.609375
-93.26171875,-140.13671875,74.70703125,326.171875
-60.546875,-150.87890625,61.03515625,206.0546875
-480.46875,-149.90234375,65.91796875,328.125
-658.203125,-128.90625,89.35546875,441.89453125
-322.265625,-120.60546875,88.37890625,335.9375
-86.42578125,-126.46484375,77.63671875,186.03515625
-382.8125,-129.8828125,83.0078125,251.953125
-666.50390625,-129.39453125,85.44921875,392.08984375
-395.99609375,-130.37109375,83.0078125,330.56640625
-26.3671875,-135.7421875,84.47265625,155.2734375
-155.76171875,-134.27734375,88.37890625,143.5546875
-476.07421875,-131.34765625,93.26171875,319.82421875
-328.125,-141.11328125,91.796875,343.26171875
95.703125,-152.34375,82.03125,173.828125
86.42578125,-147.94921875,89.35546875,90.8203125
-243.65234375,-137.6953125,100.5859375,221.6796875
-197.75390625,-127.44140625,107.421875,332.51953125
205.078125,-129.8828125,112.3046875,184.08203125
333.49609375,-141.6015625,108.3984375,38.57421875
33.203125,-144.04296875,118.1640625,131.8359375
-117.1875,-151.85546875,115.72265625,259.765625
222.16796875,-154.296875,114.2578125,173.828125
496.09375,-151.85546875,131.8359375,-15.13671875
285.15625,-156.73828125,139.6484375,-2.9296875
30.76171875,-170.41015625,129.39453125,156.73828125
225.5859375,-185.546875,131.34765625,127.9296875
579.58984375,-189.453125,155.76171875,-64.94140625
496.58203125,-204.58984375,157.71484375,-103.02734375
193.359375,-220.21484375,160.64453125,21.484375
362.3046875,-229.98046875,180.17578125,44.921875
759.27734375,-236.328125,207.03125,-114.74609375
668.45703125,-249.0234375,210.44921875,-196.2890625
312.98828125,-260.25390625,206.0546875,-58.59375
313.96484375,-259.765625,214.84375,42.96875
681.640625,-272.4609375,223.6328125,-99.609375
735.83984375,-293.45703125,222.65625,-205.078125
320.3125,-305.6640625,223.14453125,-82.03125
104.4921875,-306.640625,238.76953125,30.76171875
319.3359375,-306.640625,253.90625,-50.29296875
601.07421875,-312.5,247.0703125,-220.703125
429.19921875,-330.078125,243.65234375,-178.7109375
152.83203125,-331.0546875,264.6484375,-25.390625
318.84765625,-328.61328125,270.5078125,-43.9453125
583.0078125,-342.28515625,264.16015625,-202.63671875
480.46875,-346.19140625,258.30078125,-244.140625
24.90234375,-348.14453125,253.41796875,-79.1015625
-268.06640625,-355.46875,252.9296875,-17.578125
-123.53515625,-358.88671875,249.0234375,-187.5
-69.82421875,-366.2109375,237.3046875,-268.06640625
-365.72265625,-365.72265625,243.65234375,-134.765625
-501.46484375,-361.81640625,249.0234375,-23.4375
-257.32421875,-368.65234375,224.609375,-102.05078125
-117.1875,-370.1171875,213.8671875,-222.16796875
-364.2578125,-357.421875,240.72265625,-133.7890625
-567.3828125,-359.86328125,243.65234375,57.12890625
-430.6640625,-366.2109375,227.5390625,49.31640625
-222.16796875,-361.81640625,220.21484375,-89.35546875
-333.49609375,-349.12109375,226.5625,-85.9375
-687.98828125,-352.05078125,220.703125,49.8046875
-638.671875,-354.00390625,206.0546875,18.06640625
-349.609375,-337.40234375,201.66015625,-162.59765625
-476.07421875,-325.1953125,198.73046875,-153.3203125
-810.546875,-314.94140625,200.1953125,57.6171875
-793.9453125,-308.59375,189.453125,245.1171875
-518.5546875,-290.52734375,193.359375,108.3984375
-517.578125,-268.5546875,202.63671875,59.5703125
-846.19140625,-270.01953125,189.94140625,446.77734375
-1000.0,-268.5546875,185.05859375,666.50390625
-816.40625,-254.8828125,191.89453125,577.63671875
-733.3984375,-242.1875,186.5234375,404.78515625
-944.3359375,-240.234375,167.96875,438.4765625
-1000.0,-233.3984375,166.50390625,519.04296875
-974.609375,-225.5859375,165.0390625,520.99609375
-888.671875,-209.9609375,169.921875,444.3359375
-934.5703125,-208.49609375,166.015625,303.7109375
-1000.0,-211.42578125,163.57421875,430.17578125
-1000.0,-186.03515625,184.5703125,456.54296875
-864.74609375,-184.5703125,172.8515625,205.56640625
-858.3984375,-187.5,152.34375,-139.16015625
-999.0234375,-176.26953125,159.1796875,-167.96875
-1000.0,-161.1328125,177.734375,124.51171875
-778.3203125,-161.1328125,172.36328125,99.12109375
-399.4140625,-158.69140625,174.31640625,-37.109375
-392.08984375,-130.859375,187.5,-91.30859375
-235.83984375,-111.328125,188.96484375,-65.91796875
-283.203125,-100.5859375,200.1953125,-155.76171875
-885.7421875,-61.5234375,196.2890625,-349.609375
-1000.0,31.73828125,231.4453125,-307.12890625
-975.5859375,113.76953125,259.765625,-218.75
-1000.0,155.76171875,253.90625,-194.82421875
-1000.0,185.546875,250.0,-317.87109375
-1000.0,205.56640625,244.62890625,-363.76953125
-1000.0,218.75,240.72265625,-59.08203125
-1000.0,219.23828125,229.00390625,206.54296875
-1000.0,230.95703125,234.86328125,265.625
-1000.0,255.37109375,258.30078125,327.1484375
-1000.0,262.6953125,270.01953125,655.76171875
-1000.0,261.23046875,271.484375,965.33203125
-1000.0,257.32421875,268.5546875,965.33203125
-1000.0,244.140625,273.4375,959.9609375
-1000.0,204.1015625,271.484375,969.7265625
-987.79296875,160.15625,270.99609375,967.28515625
-1000.0,123.046875,298.828125,967.28515625
-895.5078125,96.19140625,345.21484375,967.28515625
-526.85546875,73.2421875,377.9296875,967.28515625
-250.9765625,49.31640625,412.109375,967.28515625
236.328125,33.69140625,450.1953125,967.28515625
738.76953125,9.27734375,452.1484375,967.28515625
600.5859375,-18.06640625,426.7578125,967.28515625
169.921875,-43.45703125,390.13671875,967.28515625
-92.7734375,-50.78125,375.9765625,967.28515625
41.015625,-55.17578125,364.2578125,967.28515625
131.8359375,-82.03125,318.359375,967.28515625
-250.48828125,-105.95703125,277.83203125,967.28515625
-392.08984375,-108.88671875,250.9765625,967.28515625
-8.30078125,-109.86328125,214.84375,967.28515625
170.8984375,-122.0703125,151.85546875,967.28515625
-114.2578125,-127.44140625,105.46875,967.28515625
-292.96875,-125.48828125,80.56640625,967.28515625
14.6484375,-127.9296875,41.015625,967.28515625
422.8515625,-145.01953125,-17.578125,967.28515625
369.62890625,-159.1796875,-57.12890625,967.28515625
185.546875,-150.87890625,-65.91796875,967.28515625
421.875,-150.390625,-93.26171875,967.28515625
839.84375,-170.41015625,-150.87890625,967.28515625
846.19140625,-175.78125,-191.40625,966.796875
610.3515625,-169.43359375,-215.33203125,967.28515625
746.09375,-180.6640625,-268.5546875,967.28515625
963.37890625,-190.4296875,-309.5703125,981.93359375
989.2578125,-182.12890625,-317.87109375,907.2265625
765.625,-182.12890625,-351.5625,-962.890625
623.046875,-195.80078125,-393.5546875,755.859375
713.8671875,-170.41015625,-339.84375,-678.7109375
712.40234375,-149.90234375,-283.69140625,-1000.0
902.83203125,-146.484375,-260.7421875,-932.6171875
980.95703125,-119.140625,-206.0546875,-1000.0
958.49609375,-100.09765625,-163.0859375,-1000.0
967.7734375,-100.09765625,-142.578125,-1000.0
966.796875,-91.796875,-116.69921875,-1000.0
966.796875,-74.21875,-87.890625,-1000.0
966.796875,-72.75390625,-86.42578125,-1000.0
966.796875,-74.21875,-89.84375,-994.62890625
967.7734375,-61.5234375,-80.078125,-1000.0
960.44921875,-53.7109375,-72.265625,-963.37890625
976.07421875,-58.10546875,-68.84765625,-759.27734375
930.6640625,-64.94140625,-75.68359375,-390.625
748.53515625,-58.59375,-64.94140625,14.16015625
771.484375,-35.64453125,-32.2265625,150.390625
785.15625,-34.1796875,-24.4140625,154.78515625
343.26171875,-33.69140625,-15.625,342.28515625
-166.9921875,-20.99609375,1.46484375,659.1796875
-270.5078125,-13.671875,12.6953125,763.18359375
-236.81640625,-15.13671875,20.5078125,441.89453125
-626.46484375,-20.5078125,29.78515625,33.69140625
-1000.0,-23.92578125,41.9921875,-342.28515625
-997.0703125,-20.99609375,57.6171875,-812.98828125
-992.1875,-20.99609375,62.5,-1000.0
-1000.0,-24.90234375,61.03515625,-987.79296875
-1000.0,-20.01953125,76.66015625,-999.51171875
-1000.0,-19.53125,83.49609375,-1000.0
-1000.0,-25.390625,76.66015625,-1000.0
-1000.0,-27.34375,77.63671875,-1000.0
-1000.0,-20.99609375,93.75,-1000.0
-1000.0,-18.06640625,102.05078125,-1000.0
-1000.0,-23.92578125,94.23828125,-1000.0
-1000.0,-24.4140625,95.703125,-1000.0
-999.51171875,-18.06640625,114.74609375,-1000.0
-995.1171875,-19.04296875,118.65234375,-1000.0
-1000.0,-30.76171875,105.95703125,-1000.0
-880.859375,-31.25,118.65234375,-999.51171875
-759.27734375,-13.671875,144.53125,-998.046875
-809.08203125,-12.20703125,148.92578125,-1000.0
-533.203125,-18.06640625,141.6015625,-921.38671875
11.71875,-19.53125,141.11328125,-816.40625
255.859375,-20.01953125,147.94921875,-762.20703125
164.55078125,-22.94921875,132.8125,-555.17578125
283.203125,-31.73828125,122.0703125,-340.33203125
729.4921875,-36.1328125,123.046875,-385.25390625
999.0234375,-41.9921875,104.98046875,-423.828125
850.09765625,-51.7578125,91.30859375,-294.43359375
744.62890625,-60.05859375,88.37890625,-103.515625
921.38671875,-55.6640625,95.21484375,-10.25390625
978.515625,-55.6640625,100.5859375,-11.23046875
962.890625,-66.40625,93.26171875,107.91015625
949.70703125,-67.3828125,94.7265625,279.78515625
945.3125,-56.15234375,113.76953125,104.4921875
964.35546875,-46.38671875,125.48828125,-272.94921875
984.375,-47.8515625,120.1171875,-280.2734375
870.1171875,-40.0390625,129.39453125,-93.75
831.54296875,-20.99609375,149.4140625,5.859375
964.35546875,-10.25390625,159.66796875,-30.76171875
988.28125,-9.765625,163.0859375,-3.41796875
816.40625,0.9765625,173.828125,159.66796875
748.046875,28.3203125,205.56640625,217.7734375
935.546875,47.8515625,229.98046875,77.63671875
991.69921875,36.1328125,210.9375,-62.01171875
895.01953125,37.59765625,204.58984375,8.30078125
729.98046875,54.6875,229.00390625,109.86328125
836.42578125,58.10546875,233.3984375,-10.7421875
-998.53515625,72.265625,235.3515625,-251.46484375
875.9765625,74.70703125,249.0234375,-375.0
533.203125,67.3828125,268.06640625,-459.47265625
534.1796875,64.94140625,273.92578125,-787.109375
800.78125,63.4765625,284.66796875,-1000.0
679.6875,59.5703125,290.0390625,-991.69921875
263.671875,64.453125,300.78125,-997.55859375
84.47265625,67.87109375,313.4765625,-1000.0
211.9140625,55.6640625,309.08203125,-1000.0
199.21875,69.3359375,333.0078125,-1000.0
-145.99609375,86.9140625,378.41796875,-1000.0
-413.57421875,91.796875,422.36328125,-1000.0
-314.94140625,100.5859375,446.77734375,-1000.0
-284.1796875,102.05078125,466.796875,-1000.0
-649.90234375,90.8203125,462.40234375,-1000.0
-998.046875,75.68359375,416.9921875,-1000.0
-864.2578125,61.5234375,380.859375,-1000.0
-597.65625,47.36328125,356.93359375,-1000.0
-716.796875,40.52734375,341.796875,-1000.0
-961.42578125,21.484375,311.03515625,-1000.0
-840.33203125,12.20703125,288.57421875,-1000.0
-456.54296875,20.5078125,289.55078125,-1000.0
-328.61328125,0.9765625,257.32421875,-1000.0
-461.42578125,-16.6015625,215.33203125,-1000.0
-339.35546875,-21.484375,192.3828125,-1000.0
158.69140625,-20.5078125,181.640625,-1000.0
473.14453125,-28.80859375,164.0625,-1000.0
383.30078125,-43.9453125,148.92578125,-1000.0
447.75390625,-46.875,146.97265625,-990.72265625
818.84765625,-48.828125,142.08984375,-1000.0
