TP9,AF7,AF8,TP10
2.9210225714137508,-1.9977363304172302,1.9492249508329496,-0.12213395620874354
4.463020678795517,9.16203467939989,-13.238362646073236,-24.782742384224736
5.803625868867518,19.030679849490447,-24.285341586009324,-37.66227955357014
7.1956676188041335,27.567648796673456,-30.11218121066432,-34.973336625609086
9.020747917890807,35.04852740284102,-32.383136574974735,-22.325652302367786
11.16283547606641,40.04562760766235,-32.55533863296159,-9.325456329471841
12.953301724089625,39.670073759819246,-30.26570592749387,-2.797965570004645
13.744565251389533,32.87113365898745,-25.050495771737378,-3.77515535172373
13.373961609364795,23.257799123692557,-18.880260842172945,-8.88752130215176
12.11972764258975,17.540945132638953,-15.807440682651922,-13.622916568658647
10.437870890033542,20.320626616742206,-18.633826856942683,-15.115772389094802
8.759241253417915,30.06731488145184,-26.103505560972753,-13.407800402968226
7.308739890106112,39.9227356594113,-33.37631821588513,-10.760647553889099
6.007467824099441,42.299130385954875,-35.08297074465036,-9.453035392608342
4.637052888699239,33.484171266216336,-28.409586701045324,-9.807315331263736
3.070272231662627,15.394969357727284,-14.443803445905193,-10.165317668187736
1.1786363959316275,-5.88801907823953,2.5235781245030724,-8.557095139795479
-1.3708554873758143,-23.310462286071324,17.079375373393397,-4.229572466665907
-4.784917850707551,-31.74672493578265,24.949471791533185,2.070815309753577
-8.408536059807028,-29.46104577727865,24.39076083440744,8.609127013974641
-10.671402545414406,-18.251329680145986,16.496436777037648,13.35157196942391
-10.228319713170585,-2.6828755736235657,4.676767565658656,14.87725100437835
-7.241687729146826,11.665021812567417,-6.664187518370414,13.270559723462004
-3.426964689964693,20.6420440136303,-14.072525698449903,10.086448626165497
-0.8770919552565881,23.20765737758446,-16.519377311902268,7.186636173569519
-0.8297978547391539,21.052138225681603,-15.221031560442924,5.654164236938498
-3.135164825041474,16.746998064488643,-12.100802651813929,5.809700708609192
-6.344037351121035,12.223422018980669,-8.46624690002932,7.712785643836954
-8.340896037637656,8.405139249725956,-4.843802007956317,11.024572029706018
-7.584004623413547,5.3755660613266905,-1.4256408434880592,14.472938727895665
-4.315575663566095,2.510271129331703,1.715041869978099,16.065895862262185
-0.538443770108119,-1.175274287833419,4.647671125064155,14.194749765245117
1.485629717309881,-6.289158692297468,7.462921631764586,8.576118363195505
0.8807459566859891,-12.453434018828172,10.055509176590764,0.3863995439343478
-1.469609280736013,-18.320364880655898,12.092730170162802,-8.097606786661615
-3.7746675065095316,-22.10635469394961,13.137593877563681,-14.17274226252816
-4.406141954444174,-22.41047395192321,12.809741546333102,-15.969663816401171
-2.6036373027358963,-19.30725492412822,11.184829584223092,-13.819782886823075
1.188414589111885,-15.233933418641548,9.444179221847605,-10.2701620277103
5.470519790390442,-14.414685999222995,9.95165400964735,-8.173511442783134
8.439051964639487,-20.29398256115055,14.940554337342894,-8.410929726677061
8.855591324266813,-32.73441632342237,24.56335079209728,-9.364076031653036
6.365508473399487,-47.624651201259255,36.20669636236207,-8.485125060837035
1.3482010127323298,-59.19830439537734,45.71826630022137,-4.476903608193198
-5.120589440218034,-62.64720787437424,49.15920767292434,1.5657943122151783
-11.224856007830336,-55.299413939317255,43.914430030567914,6.8083847714453505
-14.905566553840714,-37.27815179585638,29.719655584164983,8.83056962211325
-14.913053190507318,-12.553401834711298,9.927579328887841,7.803461969167637
-11.514630162630791,11.325284633445584,-8.768409372069735,6.611992611534577
-6.21426067095048,26.718760016353233,-19.73596208712685,8.289532758315575
-0.8575166882011113,30.72159930287752,-20.90986250850625,12.939648486921895
3.1778853643882723,26.863948780683867,-16.14899473148335,17.265375108031172
5.43257371466376,21.98919475588243,-11.976269842553949,17.311225579188314
6.360787849643533,21.316062110242623,-12.79434619659243,11.782016104453621
6.716106867111131,25.706811211400442,-18.555955220262728,3.009807530432701
6.674027470356913,32.30438723913079,-25.86328331092961,-4.822226164050616
5.6699526066719494,37.07210350505288,-30.722295514180093,-8.399948412272721
3.377194076975552,37.40259030931025,-30.943296957630167,-7.061767302168514
0.7764810520275202,33.589503295600515,-27.154441011699955,-2.798971397996277
-0.12788003616520782,28.49573410093037,-22.1564719468989,1.3255281526382716
2.065878965786563,25.487836485700967,-19.00238127068202,3.10490189263389
6.7160140753658295,25.68712146592064,-18.852991488929014,1.8405753143115946
11.188191276948341,26.281047310770997,-19.871941708428796,-2.536657184801542
12.339515908817464,21.55116210098273,-18.011452976601884,-10.140347669459036
8.484449066122881,6.855739861217281,-9.631821851338838,-20.187037810428464
0.7654506204317435,-16.78607628930272,5.3905633951510366,-29.79752424705233
-7.025385593887494,-41.41739792528382,22.324076816047995,-35.143462955727145
-10.485219397037904,-56.109102860278334,33.53100155505162,-34.80792363348169
-7.380161365886226,-53.664618325388446,32.83520973344304,-31.80303211354612
0.9270582656444398,-35.02065288525157,19.39845147352446,-31.32363689876587
10.530960614442925,-8.276302705358425,-1.5257685028187098,-35.60696294734628
17.504764821924287,16.35690882832636,-21.294456862759414,-40.437430548636165
19.875870678396346,31.75069272971495,-32.165695921155496,-36.87955216471157
17.976198276662117,36.07220455685735,-30.764898235277485,-17.893906276620182
13.476178238212707,31.61071339822571,-19.169645239379552,14.641151658131752
7.970236308884377,22.012504337422833,-3.279402793790894,48.59688455848147
2.0040299107571298,10.153015536802652,10.649782821186188,68.77844354394227
-4.720916830105475,-2.1783592423759726,19.282093587351582,68.1457900273684
-12.044561253235424,-13.204424915192936,23.079187207641763,53.590515881538195
-18.2795753800439,-20.26326021974899,24.297315684119713,40.53768410098484
-20.810787980328655,-20.487084956604512,24.18363772057652,40.764248574373426
-18.091371096077523,-12.863700983903861,22.0804338524585,53.99642525831809
-11.116458730087691,0.18080041921899992,16.94925612987094,69.70203581336332
-2.9537454831610512,13.387438429691004,9.362191640980269,76.08351336433975
3.120663830297983,21.196954924473985,1.9499993568760883,68.26572137416615
5.317784212153059,20.422334822357012,-1.948714276085876,50.25485563386616
3.964642253827175,11.63016523038179,-0.3770464846328248,30.874618358457013
1.057036969719947,-1.179224936511107,5.75285567173342,17.48988369152257
-1.0292186782279353,-12.608587462640305,12.945780167609795,11.73059921516987
-1.1071670758782406,-19.02431685002453,17.415235103598803,9.546031043809725
0.10889891204636873,-20.845189861061908,17.76215450590581,4.8364989909737215
0.9051293670463005,-21.699713321101996,15.533824590614149,-6.435286102056301
0.2887530352707449,-24.64570499649231,12.992302528194328,-24.321673757419838
-1.1562487707784086,-28.68539240061671,10.361722516188768,-45.340901009050725
-1.948358995175849,-28.90190571185797,5.421537734479266,-64.04946027527407
-1.0595073916041866,-20.433299882251468,-4.121695901445429,-75.2035537041721
1.1478676103153995,-3.2648478353520516,-17.708913354743817,-76.48040439858012
2.8003993656589907,15.988357950355313,-31.056151246306282,-70.41601311314399
1.3610327050184925,27.297855789837257,-38.286256308572604,-63.32132679076022
-4.548432148958028,23.935560112893167,-35.83612135193142,-61.01933545228034
-13.355748073651082,7.927826271008854,-25.3680132799134,-64.56020686622807
-20.660661090186565,-10.568184400328763,-13.105538456868802,-69.51524249439164
-21.944370982838755,-20.275248424556427,-5.561106984327573,-69.29028676741717
-15.8908288815592,-16.791253587618083,-4.892692441695812,-59.641906199334876
-5.398154397526569,-4.975636086399287,-7.8328191811380705,-41.19304961966425
4.524345221877319,5.991931763912489,-9.095474271983482,-18.677570259797424
10.008854476583368,10.33932954475075,-6.202121516715629,2.1383002816913144
10.242454034573392,9.676974575461008,-1.5253564023050723,17.556026097665075
7.166489302982272,10.15656696165942,0.17495979805419218,26.927844982045766
3.751181795088718,15.516143360429162,-3.3472963480881694,31.34871535544617
2.1991319286500315,22.289624938169815,-8.715950797317042,32.0712842122527
3.1125407652448205,21.877251415024507,-8.703908666651772,30.42498683144317
5.820594756981215,8.252648101859263,1.9156546277635615,28.51553065781601
9.170175958436843,-15.295879454101275,21.035328200938476,28.76721259428155
11.986205110753382,-36.70797247450337,39.26427186720022,32.27198426062188
13.229707500882547,-43.168909953495024,46.04895729970886,37.92933112498767
12.37091658914506,-30.28970646766479,37.213036246053306,43.35092847010149
9.829776596513165,-5.205710519694514,17.82981304918887,46.227985138043415
6.700538925527091,18.42837066957807,-1.6115443361470263,44.91130937205098
3.7529191978196117,29.28998349591303,-12.234557296473248,38.77363782959691
0.9054071056936521,24.755608580590703,-11.64231245538419,29.076879366328185
-2.074249664203124,11.14377783899309,-3.9209408588622514,19.313395834903467
-4.640393615282167,-1.4808558484567116,4.1668821839601895,13.621229450600106
-5.777354131619424,-6.111584193415589,7.768019615070633,14.008397627320203
-5.3017588289473,-2.6166304783885908,6.355861074650218,18.798985184235633
-4.4288687383559076,3.8591266640315163,2.657792765387517,23.63410928828911
-4.741984493450506,8.101079082135355,-0.6049353957284619,24.116906263233396
-6.689889071203335,8.883792828046925,-3.0520961279317658,18.28403783612588
-9.215623141355573,8.570638118843886,-6.023414630574659,7.554245708305386
-10.759866057280956,9.496235613706649,-10.16368364736687,-4.399573073773005
-10.549561410588707,11.234537404419271,-14.129515900585199,-14.211063692725443
-9.027524263679789,11.314079806494338,-15.734217459303144,-20.768337003377592
-7.129326463068013,8.210300272250294,-14.080256783513724,-24.730424541984338
-5.089199891331907,3.3852334062485165,-10.42635931892594,-26.367394371615642
-2.0046611760786925,0.19349437170396855,-6.998694491014708,-24.569452254882723
3.097766463768731,0.4206141383478215,-4.837767019514628,-18.46147403670026
9.52176404788008,1.7552906594021818,-2.6555186925132808,-9.68876120969031
14.50172958466143,-0.7725771278869852,1.9708299487028649,-2.4295597826824387
15.20813004042584,-9.96290794756761,9.79805762327386,-0.6530275572932347
11.645599994127469,-22.60613392652848,18.152869522206796,-4.884617316134881
7.543809834667564,-30.71143048226408,22.325694682006812,-11.080903796496433
7.900659375057206,-27.26481196286136,19.215320935523604,-12.724070203823832
14.84965863322559,-11.73266839504522,9.89796915588692,-5.319064612380906
25.140453422523983,9.169213142201974,-1.217036052005011,9.483848250120271
31.53361065242935,25.835665906514574,-9.67128353829439,23.755133052763654
27.64524720151362,31.78555172008586,-13.672754123611243,28.371754014702358
12.959164351014635,27.029318695435304,-14.254791014304935,19.76677900130642
-6.048296078730495,16.757374049627675,-13.382481589293603,2.5566610729631507
-20.07814875294619,6.870291613420479,-11.986782562071282,-14.140604179135348
-23.393797366595855,0.12358099668107483,-9.512609449395836,-23.087252210357793
-17.26065020451823,-4.289610646162695,-5.090615550005973,-22.757462506883126
-7.998408270324906,-8.231849123129816,0.9107769826819425,-16.75168370325923
-1.9542172774827828,-12.145293468549687,6.494392432575783,-10.554777377369058
-1.6583674145813803,-14.773211613356043,9.265741894342694,-8.10088404749321
-5.385397938478274,-14.532342894318443,8.10527459481675,-9.797813959474293
-9.3662661878102,-10.660026575198213,3.64213552510679,-12.99478623457507
-10.703032531441158,-3.5360204243619244,-2.5978852355093327,-14.608419699030568
-9.289530620290911,4.914768334599994,-8.836148652709314,-13.724113418626551
-7.588348827750794,10.649838277484092,-12.615012267369499,-11.807860147943945
-8.26296999540476,8.472070771742194,-10.681106277549613,-10.6541571064204
-11.530713793036146,-4.557017887751043,-0.8098517974139903,-10.505341295458459
-14.79035743628758,-25.633988952476074,15.48229568044654,-10.105225279255155
-15.025194142593636,-46.3395988566803,32.33213398234708,-8.09107028280348
-11.562386316079028,-56.96492761972152,42.250321354676,-4.159470885066271
-6.449169007176771,-51.76672528962403,40.165795294565534,0.7401359636547146
-2.3609796838161494,-31.69312349214392,26.050558144785334,5.090911662708492
-0.3628961825168076,-3.739644063058582,5.025363552646872,7.944581974901813
0.4718541777868469,22.243353369345076,-14.9223712118528,9.61371232236086
1.6312556535904703,38.22768412191735,-27.004547072693338,11.013914659628243
3.41619083366563,42.082773442650655,-29.498376369099976,12.142593815253557
4.389238618708568,37.90073290173467,-26.209995334625628,11.590417439560074
2.58864013735165,31.594338546559836,-22.429719989179432,8.044016194842373
-2.335476463746906,25.49803665601476,-19.85906856555425,2.212940207792646
-7.970402110643259,17.34450672856786,-15.618155333649407,-3.075969933848988
-10.362712468554943,4.687098603248548,-6.404771065745522,-4.744609732834656
-6.883258250872313,-9.984835164144947,6.541533667673089,-1.4428630735939936
1.6543876763083194,-19.172874497802177,16.89847133610001,5.742120499313303
11.375379603105875,-16.214447150562354,18.070277925732455,13.81972096710579
17.818863478119766,-1.938305785018069,9.169514074467033,19.336565718306403
18.64043478384085,14.490637959344362,-3.3987138284376006,20.406604147268805
14.800193081256985,22.309802583003396,-10.721251176397608,18.094500787950885
9.542740921917996,17.901166296801733,-8.654139100283318,15.53595755636468
5.877801112248466,7.34700633188125,-0.934477017077629,15.150058865400739
4.5402265801288895,0.23520248800380555,4.904491476751119,16.686418915656652
4.2483854065875715,0.7569237046887085,4.828103077902291,18.092540268448598
3.8598309313782218,4.631932188848529,1.655030896158762,17.866342281174273
3.8608511054383445,4.2005439723344,1.525668835738591,16.108112474937364
5.408157769696673,-3.9796454602366738,7.531648576361912,13.6184048464302
8.223660054179303,-16.268166115207546,16.849333444206955,10.728350838604412
10.113609747253332,-25.562976677624167,23.488419780306835,7.1380295861059855
8.847952402828543,-27.16292131979005,23.31337973880341,2.41536560104348
4.331283374409794,-21.734002753633987,16.827964202951623,-3.4723028648355077
-1.1472835752088006,-13.777058997684504,8.123688872872517,-9.696676221161981
-4.618441429994058,-7.647483982852812,1.5180102224344902,-14.507556535566508
-4.482615782286085,-4.410563108343964,-1.4504824745213423,-16.12454330264524
-1.4700743920836836,-1.8516480714611225,-2.5145623780951345,-14.111462376138038
1.957108714515244,2.443109298832783,-4.283631931268958,-9.825078527396487
3.3633526440525747,7.81081043930178,-7.167248325607171,-5.49171785506367
2.084587466387023,10.620463685625298,-8.914392719698032,-3.0679372753915777
-0.4504022591626386,8.167459020246895,-7.526970573406664,-3.806406583809648
-2.1544452498741897,2.333518675723614,-4.282070545082116,-8.010546318196916
-2.1216782738638433,-1.3282898023218024,-3.119580314122114,-14.491406945462662
-1.1749903692029948,1.4025938748691396,-6.783894378236022,-20.626023300618936
-0.8719421067014621,9.310478989504736,-13.845573002737204,-23.849091627752326
-2.135307313972964,16.555934238480976,-19.634490366121877,-23.454711642874354
-4.587327434097044,17.485913229287153,-19.993767937347986,-20.781033696517238
-6.807668384130932,11.067375585354707,-14.408921026393603,-17.690418275404873
-7.297274773269763,1.352908809222708,-6.125009824197192,-15.132934443178602
-5.68360343850128,-6.067072333497993,0.5277478786750835,-12.992901659380253
-3.2204644136982568,-8.355850399071787,3.2865562114409337,-10.70849501518483
-1.8201499306126858,-6.687032259341458,2.9366550869910935,-7.815976502348923
-2.326330715625957,-3.7290537744770655,1.4680720647519252,-4.3128640661247974
-3.875169542366476,-0.47719281989003115,-0.38111036972970935,-0.8249848662997707
-5.091898955559637,4.096176062168532,-3.457807937875617,1.8009247262937036
-5.628715241382339,10.709657302141864,-8.33386170582558,3.3672417444669156
-6.168871085261631,17.88423129964486,-13.706399331479911,4.734839749098744
-7.047759808546826,22.542959803094828,-16.827283478207566,7.272297918436727
-7.327630775990604,22.14040224394844,-15.283162687331224,12.004967060297448
-5.457473090319415,16.292333372508963,-8.50056637351016,19.13916780698745
-0.7924274895442552,6.972599706288641,1.7950065854598325,27.714101751639294
5.503307782603094,-2.5662145141339776,12.217213667291055,35.27016029912906
10.94080208530159,-9.55820697681139,19.35306557188673,38.49801536112514
13.259016611583442,-13.158865695848327,21.686123378652706,35.39127442485995
11.945144666170412,-14.513632510861354,20.39112788507743,27.22808411343593
8.48359351254689,-15.519628887116502,18.2440271780404,18.021015654361587
5.032591150969885,-17.477230357984446,17.592870348851118,11.594575093029196
2.7468601210480292,-20.45167306180717,18.950494329140525,9.075685866336674
1.3396209733401336,-23.028496865254375,20.732307311990436,8.862067688526013
0.014756829939293153,-22.29486075203378,19.84093488765799,8.380999716273552
-1.5769346232768768,-15.044435982474319,13.215449842765574,5.830928140542449
-3.285565255571296,-0.7963083194016539,0.45929802070272807,1.0707333003375974
-4.8114020157006445,15.457694020279993,-14.056592239110524,-4.444139189778522
-5.727335860849201,24.487287942356435,-22.476126610310367,-8.802300723697911
-5.462868118016093,18.910580829830437,-18.699432791302804,-11.27846489454009
-3.8244683469998977,-0.3915284827666417,-3.6652373947238934,-12.88346030055384
-1.622685651618932,-23.74551010639803,14.493202247622532,-15.057816270721343
-0.42188527205784143,-39.2383635792065,26.10202574201652,-18.001519199568328
-1.3899265146257371,-40.77187182453499,26.482973237540058,-20.602542854088135
-4.3390849373859455,-30.856324550507555,17.935787507790494,-21.767756916756888
-7.77733376956278,-16.72406246384495,6.417331164173657,-21.34316031576891
-9.740649126231975,-4.2053181286845716,-3.341812794429941,-19.866653183110465
-8.800659389608644,5.240142448746649,-10.17393028464689,-18.021211434308572
-4.8892007846708045,12.762084939080095,-15.138536069448683,-16.41058598801415
0.4597596367091332,18.616823578222117,-18.716998094388163,-15.283094054466348
4.920210352410796,21.15163313062649,-19.794346945553105,-14.141725023789023
6.924178757448989,19.28682092416911,-17.46360732418557,-11.968618574732014
6.640049206318268,15.088589231819935,-13.177118361524037,-8.182939430066376
5.452852362484558,12.599931756117268,-10.060620187204044,-3.257603097903354
4.611441984745144,13.62888899281482,-9.657361966989171,1.7255212245255325
4.431877602985022,15.294654038734986,-9.890781757583008,5.864091909924589
4.474821483071875,12.573671678628587,-6.988220662121234,8.665178706309407
4.0701628391263185,3.6627807534367336,0.34475927347373037,9.99417450836331
2.7604824847333878,-7.086522932955643,8.736276107837352,10.323851258604048
0.7348835468517919,-11.711661045213859,12.232494203593298,10.795903576691783
-0.9953129309646825,-4.90917520516205,7.0420396471541675,12.363106453761743
-1.2243346773174122,10.935701245249323,-4.8693238828724885,14.710548767985658
0.29514744216194133,26.30456225507189,-16.330290448106553,16.43046646308903
2.3915169487420953,30.90356706023548,-19.665911457666162,16.445301400366745
3.351059966790523,21.21210890815326,-12.265450294185158,15.014409307326869
2.2960679921374663,3.1616891726396257,1.3761695264209408,13.292886358669508
-0.16924084380067986,-12.281727749593546,12.940971782921032,12.231760603194113
-2.334213206239401,-16.84552166862657,16.17322229448175,11.969789063663848
-2.3314089109684986,-9.764379487274033,10.549834625261434,11.841551446339256
0.7281211890451987,3.2303316310068295,0.4183144349109531,10.725616872090148
5.897395215190182,14.492118505057077,-8.534701566278342,7.807131748551448
10.626171846848376,18.50807931997975,-12.214162257440423,3.4489640812027575
12.36324889293629,13.44800715395506,-9.134290357089421,-0.8720486881763521
10.373063533944958,0.9545462884488443,-0.34394406932068716,-3.847619232181465
6.13367622089369,-14.600434565829538,10.930415935257216,-5.404589460777892
2.081023789630745,-27.395223465413615,20.252547250845115,-6.211018482025072
0.006033596676287457,-32.54382059027316,23.969236739915672,-6.434273003407885
0.26319044308667133,-28.908845617676928,21.367541899316283,-5.566720159754225
1.8342844658467536,-20.101770643852735,15.208696213162535,-3.4150300922383594
2.9151640989590923,-12.01496302308864,9.710534517500045,-0.6644319106607198
1.931351994951271,-8.21716792631882,7.198989330237942,1.6646958510220218
-1.4122189772864175,-7.12605769381026,6.183204959549559,2.8206887090423063
-5.922706934257841,-3.911647094646729,2.8676219136145837,2.248470782740773
-9.834105087839879,4.258716457999581,-4.8376769622500175,-0.42154067640990256
-11.92088354728804,14.646578888764422,-14.479294877561998,-4.73336340036623
-11.82846381573682,20.76962847013849,-20.442331935068506,-9.00764607880159
-9.810675605328582,17.979235593873025,-18.54394158288934,-11.192044235773333
-6.6157664427282254,7.382241703474046,-9.516086004513841,-10.368360835340756
-3.4887554850574882,-5.2988336303005585,1.6984170091590045,-7.483548209687935
-1.7034731937959857,-14.136603817952473,9.640770644277554,-4.79484578236906
-1.7461781298591459,-16.384049433622415,11.482383656096205,-4.51984882734845
-3.009586165182162,-12.618732291737942,7.598833056129821,-7.273961784881111
-4.322819292123599,-4.730134620859049,0.16958049293057167,-11.090769687908404
-4.696573698673604,5.901278901009061,-8.589905909498265,-12.271990412499672
-3.7177605324987426,18.418802261907963,-17.26770045366526,-8.279833759720862
-1.6643565743385234,30.776185709863192,-24.632290616839413,-0.405443465365824
0.5750268800995857,38.413915279860056,-28.441767111753343,6.735286955097092
1.999774746375093,35.99247980007038,-25.760209275313038,8.877530305162251
2.247956653669317,21.97319097224763,-15.551118153503547,5.542893279848787
1.8324008146009845,1.7239445712088781,-1.0673828267448908,0.14728409399831408
1.538839265360234,-15.120655578789721,11.380482735969093,-2.874167285561796
1.7272841423541352,-21.79400331407331,17.11431642583695,-1.2278396120037558
2.3164513673547447,-19.631560585967634,16.86864751970251,3.9328122641181906
3.1608999122690067,-16.324934205898014,15.743025995039776,9.04788880313247
4.068760037035027,-18.64811084140311,18.178473740362836,10.827691339059788
4.527045471256123,-26.15433729443067,23.631406032726108,8.823997036562883
3.8425175193763508,-31.387115843432255,26.836759089508323,5.718282496065712
1.7803886480401587,-26.539735249523037,22.473559366789004,4.779221234833651
-1.0445505950976073,-11.066134967118531,10.413421855952874,6.820109223926275
-3.4761100132527134,6.3249581609257275,-2.891607675440431,9.662053462501062
-4.44537331461052,13.690130895862824,-8.656239578191979,10.348253466643767
-3.4529730855500906,5.690447262065749,-2.9531710383146574,7.54619857894775
-0.8698128492430789,-10.964038463671061,9.086110253516916,2.0658028446982213
2.0318454574130045,-22.00890420374377,16.553587985566722,-4.117889752237822
3.6719488244561176,-17.12522972742677,11.633223824728471,-8.95401078881153
3.2343041712815546,1.4589833612751564,-3.647391971701758,-11.013316080462744
1.251005982906917,21.011274496835235,-19.05737855461933,-9.896469359870771
-0.9612667034328637,28.84205315928286,-24.559364702286963,-6.208314281773498
-2.3756915927156546,21.770571614105716,-17.81050658681854,-1.109358777543691
-2.709583686200737,7.121268557416872,-4.923275565592782,4.015864415539266
-2.0886963519544577,-3.9971191161428,4.905315074941142,7.630260636917665
-0.6615669126575733,-4.8656985985309875,6.03748597347832,8.560605859673762
1.410287343488777,2.9859761844575172,-0.2657406874667233,7.091429824551702
3.8416548326213276,12.102390355345184,-7.616226854467193,5.252741000214048
6.194358795742731,15.256977662070604,-9.788839750300179,5.22014512631944
7.83046709387047,10.542470617644298,-5.321575308395515,7.1617698213501235
7.986390101775292,1.6459688054466401,2.210076474676366,8.985714411801165
6.271183822975838,-5.915438596316113,7.765587309355166,8.329996611597869
3.241140039363687,-8.489662575928362,8.381970828550061,4.606064520858125
0.18043273483634317,-5.3092382596672705,4.020613296111147,-0.7303659767871514
-1.9560913954974777,2.1525534064171183,-3.389332109975279,-5.308242960956463
-3.261143352026751,10.721342614352604,-10.82705598388691,-7.152536424104964
-4.407060299878227,16.15336478590525,-14.89356367911601,-5.730589852718146
-5.700917498500985,14.81742195121132,-13.159813805539711,-2.518770339730905
-6.85644333269776,5.9434042020571,-5.737077094274212,-0.3557320842329409
-7.46664262556634,-7.183315806696693,4.249552403460592,-1.4418338571174265
-7.25949161759562,-18.245470619642813,11.922107243176322,-5.512038549753712
-5.92119720053173,-21.128740806780907,13.187245899326756,-9.987132451669556
-3.175514949562939,-13.874847417223101,7.302484770113298,-12.005491204157368
0.650407521893789,-0.41103793854809817,-2.3985472537367483,-10.5233931994197
4.326043890447676,12.16239946121495,-10.867489361192247,-6.983464299155871
6.302509669459967,19.014671497451513,-15.288455061209428,-4.313088596207667
5.785797389967948,20.684134222997173,-16.80763115226516,-4.79845635638002
3.4179162316978897,20.76661147423361,-18.069550104355752,-8.047451827036706
1.0496887697262194,20.96262744496809,-19.30609730990942,-10.86610484676104
0.6331143444867414,19.013996072181104,-17.54385446699208,-9.811792157502593
2.8047724975831096,11.507945939526358,-9.857257622579601,-4.34793447978382
6.2552145544373206,-1.797715527169365,3.007748058254269,2.6990202634014833
8.694033302285112,-16.644012402169896,16.453167711651815,7.89266458065623
8.753532559500748,-27.133202808015593,25.301857464626423,9.990500519856914
7.015669857435294,-30.18401195416742,27.455945663993692,9.941370669894235
5.1974057849768,-27.784519786399347,25.039906164962613,8.931654851665026
4.533258109964214,-25.013391428870047,22.316967210159817,7.272722185627963
5.00570615522894,-25.261799953071336,21.961119108595216,4.963072349991243
5.72528286684536,-26.85378231459693,22.63478759546159,2.4091739914454036
5.585645007263434,-24.583622618085617,20.240305594119253,0.2276612158992993
3.7243834338776223,-15.221608625439371,12.193738658597567,-1.2635053149431241
0.024946302909030972,-1.6958996967960904,0.7828155373490038,-2.0922078568963096
-4.499524279249782,8.590449674254367,-8.040139364906288,-2.377145865123852
-8.131912076696448,10.059178426891016,-9.63085091958128,-2.107015144045507
-9.638339951716352,3.890289067367167,-4.660589093286102,-0.9485029304773799
-9.070227327264,-2.878746899089661,1.4594187299952055,1.6629652761463043
-7.404912834173079,-2.8618031940978117,2.772187412312233,5.7601012062310994
-5.6508371848560515,6.346744716324302,-3.111904033303706,10.030140482771083
-4.4126335464953845,20.654263579899922,-13.622789682420455,12.316060508250608
-3.9307291354655987,32.264364524902774,-22.952464669805735,11.447984569156597
-4.043205140656969,34.89015112778898,-25.842871534475684,8.447332985845444
-4.12002423468223,28.0206664379524,-21.19236715585781,5.59960830236696
-3.4479929211916818,16.93611850563741,-12.661625874336645,4.432459837932403
-1.915177709091324,8.197596744088465,-5.466798100009709,4.748837037343275
-0.2567621425533788,4.562951497329084,-2.23528532298044,5.244822817060102
0.3878045925176367,3.909734531880697,-1.8152876485341212,4.552858346571973
-0.8760378260718876,2.5027170933259346,-1.586721375324257,1.90871599957501
-4.212170171365632,-1.3025713150053866,-0.1948476819015568,-2.390599124040243
-8.710516037774124,-6.373074001531903,1.9995173107651807,-6.821135393841231
-12.43299030958687,-10.784712943868415,4.294423261119991,-9.332475358671372
-13.3436936019382,-13.694870698459049,6.632639490156558,-8.706487879977054
-10.789200446904339,-15.21361659636624,9.076849094338822,-5.372571576132349
-6.174016512015696,-14.917915478051638,10.646741042939789,-1.0203214634175959
-2.002185999844787,-11.274148802119896,9.258876989841523,2.383656704482272
-0.1413044487608222,-3.4327517170284545,3.6189096511063434,3.47463862873858
-0.8334027984688317,6.002239549449523,-4.258373863685787,2.22586740086735
-2.940884505390377,10.765454656164625,-8.834034800700227,0.2670392995594826
-4.798959785574323,5.146578602904128,-4.741055268648735,-0.049722333027760954
-5.0561815279303515,-10.28182847837583,8.033743826820418,2.3146463915177544
-3.2902574097248007,-27.16201903891608,22.547892603439323,5.849505819106643
-0.15302091048826985,-34.69810493891195,29.396722222191528,7.590032369199671
3.146751722682653,-27.89454515029527,23.92338227161094,5.493615435109391
5.606543746711507,-11.56269272749273,9.825423495431346,-0.2949840026905091
6.732643749807186,3.348830025317873,-3.8519395379052463,-8.012473103764714
6.374652437058753,7.9155610498213616,-9.475556787723198,-15.378925452956214
4.739370981334133,1.437378685348124,-5.889133599354058,-20.24346551942447
2.7065304121494287,-8.63224107715283,1.547521234129268,-21.10371292127197
1.7198435182116631,-12.509689558089578,5.378950251666588,-17.708753454985995
2.8937482717898155,-5.273488176967063,1.59305959884695,-11.112846509907314
6.119454156618087,9.712499502226025,-7.62553683553219,-3.020159812572114
10.091558501804121,23.516234890369716,-15.906912850208203,4.700439826635685
13.123308186970519,28.26153105306168,-17.82083136966277,9.980389321196396
13.986822462252286,22.52046116153525,-12.900113278444474,10.987748925644318
12.447604062354817,11.737644624818106,-5.521623270701984,7.548021124279799
9.50852098391134,4.190426918400574,-1.4285591921609264,2.0982540722005742
7.061835598843674,5.826220231777987,-4.021098766162659,-1.5008253248702286
6.733303023273904,16.823319387088116,-12.51786726974392,-0.6429500217549978
8.672108300994077,31.0458093037346,-22.166971820718356,4.252276946674833
11.482082717708545,38.7803451561728,-26.286929335007635,10.221505625136924
13.385519146156023,32.222654927405934,-19.901120376982192,13.758816047181385
13.413473884094305,11.032164012059608,-3.397859344591908,12.90848295302282
11.664537466801692,-16.060334824660874,16.544128043593723,8.415859781924665
8.890274514813699,-35.609664461692,30.20190244315381,3.2204656999639756
6.063624897774163,-37.527492903171826,30.54593662954541,0.31044079603771413
4.033849866992821,-21.640926340983015,17.773302389345147,0.493063981302432
3.164344746416364,1.9074373024568547,-0.48901476272590433,2.16187332068634
3.2186410849171616,19.173157052934357,-13.828654086342127,3.2149664619212768
3.693135173018871,21.563213642646144,-15.718060579492976,2.9583529004484883
4.198095059431837,10.900979215069748,-7.4397452658851755,2.180577289881631
4.455154802400068,-3.3387605078056053,3.780432341782248,1.9726272375350802
4.162915212063836,-11.88188923477921,10.728142530336562,2.888035933330702
3.1623488672400177,-11.918691532580457,11.130525081160801,4.803485783070704
1.6542803631214713,-7.356167152780266,7.88257393636984,6.907846654747264
-0.04123208033488088,-4.227605142064878,5.452052134647148,7.9330685843254125
-1.9338605088302034,-5.814839580194504,6.218332337760741,7.094339683700686
-4.289220100288005,-11.025130076550264,9.447508546051976,5.0106512862906945
-7.0610948867021985,-16.25739452645256,12.715968584032199,3.2250386183403164
-9.676629885011193,-18.43621461380491,13.889073477595378,2.536234438767364
-11.516670885490935,-16.588992272908666,12.053955342881915,2.08017567908617
-12.408061438371139,-11.126959753768645,7.132032981035675,0.2588360165564992
-12.546627196445728,-2.3976458000115177,-0.8151051868927182,-3.6220112846690165
-12.231532463352416,9.129197421808932,-11.21918070685511,-8.66849245666201
-11.956245429050847,20.73984608384376,-21.490327102529054,-12.94961533523307
-12.554371172862483,26.277290637014758,-26.387939821992536,-14.609434023867912
-14.77249698262557,19.048247813973454,-20.56271322644551,-13.013996977400994
-18.474616189227046,-2.1218627211175467,-3.387990639409707,-9.357927538054836
-22.37092285012897,-29.259681314865855,18.40533970072642,-5.945296829647012
-24.665085623738587,-48.77078349910568,33.90690603047516,-4.379616765851998
-24.123713394735844,-50.349036295036626,35.20813026999147,-4.4530216676981045
-20.884731771804333,-34.05852641583184,22.643844608905294,-5.030688638448607
-16.589476527055595,-9.79194432736408,3.8977351083959393,-5.7293876859364365
-13.576718664931189,10.14570072557692,-11.80453514182802,-7.159041050601346
-13.317801938198906,19.25546454000843,-19.60452969914523,-9.572217963710852
-15.21347628460763,19.72926438249719,-20.88001117156454,-11.961354014063064
-17.07648620943153,18.35597491792328,-20.30306596166409,-12.891970495227417
-17.11502688776189,19.34018183954474,-20.85410372036994,-12.027149821675772
-15.486978375751255,20.396954813539928,-21.08724296361035,-10.623184157965364
-13.855563515592141,15.546090329609738,-17.022010240142073,-10.5856608225342
-13.572232156897623,1.844116659143524,-6.785947678652954,-12.900675607794764
-14.432773534851217,-16.32862292925978,6.470155610060534,-16.52634866615682
-15.013690277026921,-29.345860281057952,16.08424574180448,-18.697939988158645
-13.933504343526174,-29.001887559281013,16.446695213095136,-16.886626514565467
-10.863095630764109,-14.552912965470059,7.030057841897318,-11.03989876371549
-6.646235425007537,6.246781228891771,-6.8763626044909785,-3.8307390013232383
-2.5367143904503857,22.059738454655754,-17.325847239790473,1.6409848811003809
0.8863041994312101,25.71746422988921,-19.00761856989028,4.375084916278359
4.158432666042151,19.06019177919785,-12.97107521775106,5.6020185017203215
8.189729907241423,10.690547064722347,-5.4877878576236965,6.790927046859547
13.093955576108959,8.359687623319237,-2.6137954090548563,8.11598494840387
17.953342333873636,12.710735610760219,-5.178554263333185,8.849346799620688
21.77967183669435,17.71990990238698,-8.65827955056797,8.639084846978724
24.492764706721186,16.714960882453546,-7.623742900927158,8.134624953071555
26.930364850253525,8.147221477225532,-0.35451791007253214,8.764355371475864
30.236662880260123,-3.483580222180335,10.185540094431818,12.134464086010011
35.38273639463973,-11.420316451766945,19.030955301102047,19.118909744238916
42.802054377634754,-11.583917717071733,22.801897207903412,28.894297321041098
51.8844718921579,-5.001976800347898,21.543734490686894,38.912525505614155
60.82643623752532,3.5986136296439066,17.973744040275932,46.31620274755955
67.48755058933018,9.522276788269478,15.124119937185785,49.69312555053996
70.75729292103239,11.111003218053058,14.314663859833171,49.6605664112254
71.12214102356727,9.87332857426623,14.94326886565637,48.16824946072166
69.94529208930047,8.190080595389162,15.905128416023908,47.40642093278043
68.26930687843391,7.032683886442521,16.923796626918538,48.668671957573295
66.0691066691971,5.7194395876754625,18.3294623426195,51.1902683338234
62.169683261285456,3.518728628764925,19.712438991795366,51.88774067916781
54.75938082027049,1.159339463061637,19.26266165982506,47.081554027101475
42.450300259476506,0.6270025555817599,14.82659516951859,35.29902558776676
25.360247137485857,3.399802919690093,5.789024380015168,18.54212782114395
5.274733307361168,8.630108894998822,-5.8760897560428385,0.7661336101175964
-15.309158747123844,12.768727814539135,-16.151165763285746,-14.775095957026723
-34.24875879758936,11.222526838165361,-20.8113198762965,-26.950941625113526
-50.00720833758624,1.372433598697199,-17.750640711922973,-36.414231760887695
-61.42571766314824,-15.008675748543277,-8.537266624422118,-44.39706410090763
-67.85877438325652,-32.02987687927647,2.1424838631295358,-51.37007494448527
-69.65432177861244,-42.781478188345254,9.089662080667555,-56.19813059528549
-68.28450289013799,-43.03080767131471,9.307899286490954,-56.82836912188935
-65.90104455589797,-33.230341843533154,3.032478500776057,-52.6008068002183
-64.65593087592713,-18.310656402977983,-6.818009997096194,-46.04049910639867
-65.92217263460708,-5.46906947240207,-15.966873159206964,-41.68930820942721
-69.42379768903557,-0.022195150466259323,-20.97550925456989,-42.526091829198876
-72.91016505521021,-1.1320505771161737,-21.87445150783234,-47.357901743671704
-73.24413497309037,-1.6768140674290029,-22.639537873022814,-51.65526496829314
-68.58428395385857,5.5648054337197,-27.530053527745743,-50.98333704385415
-59.95688028493795,20.13944923746803,-36.04769598821828,-44.28451903085656
-50.810716928524876,32.74651285816223,-42.20725343916782,-34.8435099507357
-44.84163057936706,32.91187090561169,-39.740796876783016,-28.22444548834409
-43.58144405452142,18.338073815546096,-28.03676026672919,-28.12901887194326
-45.18903939753768,-3.0750086038000246,-12.662351567425935,-33.01116702899398
-45.253272518201186,-19.912202826765323,-0.3528164501658174,-36.64714298993991
-39.51764431925509,-25.849341866294836,6.13718625076758,-32.8751337496484
-27.00147160071906,-22.780541199101513,8.741665323531057,-20.56194861596783
-10.995949012836197,-16.956029066078116,10.708270564442973,-4.30753145552219
3.3071595496955863,-12.628946156679989,12.9661557544372,9.497822243684016
12.694207929139253,-9.110086965606246,13.61275522634779,17.438759421918625
17.874513904895377,-3.5147664770919134,10.814962194051514,20.808010558937234
22.039012941686607,3.95681644130053,6.251284945400879,23.638484129656586
27.85330949889034,7.953489831941138,5.35574723718439,29.07439060569369
35.64450461497798,1.9825840055981523,13.210615448800223,36.786293018702
43.78623978240114,-14.723031057311008,29.271481434944153,43.31597962234497
50.34246870812269,-34.16075348225195,46.03078964939335,45.21335385629802
54.510435766686214,-44.03046414575603,53.62216323680589,42.30636518134615
56.893359201561,-36.53880136137971,46.86946951113979,37.93148683833005
58.52049764637074,-14.285163267615587,28.982046564456695,35.88488298668508
59.59332270269185,11.521978639095238,9.138318062032509,37.30034793711871
59.310261920887676,28.9344764306721,-3.819628733270253,40.389618356765105
56.96425594499349,33.059821300048995,-6.839501446053437,42.49083844572619
52.9112306017956,28.07619897748636,-3.647183492535287,41.818994172444874
48.16492391673566,22.52031105547979,-0.9977740704635765,37.786035104263654
43.26291889843767,22.225654160911947,-3.310335152279799,30.807469867716406
38.031376355719125,26.752270107808055,-9.878707266475754,22.315931883660202
32.51912282777054,31.426778695615756,-16.4178237850801,14.516103494321106
27.67115888035478,32.01110589814792,-18.890503741202092,9.505980255851773
24.67991458384117,27.70053421403427,-16.238454417437303,8.249833484798211
23.710016196737524,21.033789145262034,-10.65056972963742,9.970423908124227
23.402242085291952,16.053761332926697,-6.168955884597369,12.189819556955257
21.626956316677934,16.008841235733048,-6.497829789940908,11.747621282773425
16.85695667842634,21.10234899369511,-12.500812509022559,6.8056075770215365
9.241885431109917,27.457661320037754,-20.79883512314212,-1.5203056270762145
0.6734045307202536,28.843637566215804,-25.287319746613456,-9.774494787349921
-6.374494207295177,20.679748343338254,-21.179003019596927,-14.857225210463707
-10.521231587814814,3.3639700946339044,-8.439521130504724,-16.18079899899695
-12.294557882216655,-17.648689960590925,8.149150687792934,-15.252378329920655
-13.390891250638834,-34.83621577552135,21.986958651806987,-13.670644923417104
-15.252354496192007,-42.56344316166149,28.28616958413442,-11.958137297764338
-18.352886226027195,-39.90185887947529,26.280371026326613,-9.994348983822224
-22.437973165962056,-30.88483684508724,19.1661616906115,-7.863176054892096
-26.879930360433328,-21.774863113319313,11.836042190573432,-6.080130482661114
-30.720623818713896,-16.85735605518297,7.635549843032245,-5.281096872753738
-32.86755074343601,-15.880100658836104,6.448123202108112,-5.723952875767256
-32.727674468677534,-15.255658280395728,5.673125898567416,-6.851739948140422
-30.746487651920845,-11.965825902720631,3.170183945440889,-7.527998259957031
-28.279760717269774,-6.837472358818297,-0.47764833805040446,-7.310098085524645
-26.9082730287174,-4.398703758994171,-2.2868614335332746,-7.58808081947318
-27.61856709316084,-9.073709578033151,0.4652205715047842,-10.729038337944251
-30.140138689417906,-20.342536452077233,7.211274141799973,-17.460176539801935
-32.84447845458426,-31.03436831891002,13.177996292595997,-25.308089523125396
-33.66856001779938,-31.384369916080512,12.042823883800233,-30.160593132583276
-31.68423709421688,-16.775909560784367,0.9539755924413994,-29.53502615923232
-27.878921213248717,7.174552885780578,-16.053513598998432,-24.409306023225543
-24.17697740610322,27.477543627462303,-29.940692810154985,-18.327778438647496
-21.626123199304917,33.13813649281807,-33.16118814089136,-14.983364647765125
-19.648592638658926,23.266726288378685,-25.353473323755672,-15.950112222080763
-16.97905320761387,6.9643509520170594,-13.100597110073636,-19.63659823001783
-13.063652684771526,-4.423746410752751,-4.256033316691667,-22.2081615807292
-8.51375827310869,-5.489039413651469,-2.2770917218791253,-20.31059264694512
-4.463281337498022,0.978955114813129,-5.029653467630035,-13.609401027125585
-1.5856858185433018,7.803105593098145,-7.662059029267833,-4.7988226213810385
0.5060419930573492,9.06321682874275,-6.3361158733097716,2.7972369941538173
3.049709413629891,3.7874066043557932,-0.5780550949934473,7.439355052285889
7.100135093958542,-3.786483396801504,6.43019007565018,9.191002433410207
12.439179670774072,-7.260638250198568,9.856637458872228,8.98127663644663
17.57512025406189,-2.719005244010836,6.734062014691528,8.047310776733992
20.9665631680717,8.264482554831478,-1.5549629451099212,7.712902518510529
22.153363939449434,19.581669237010246,-10.05292867113528,8.725578067626525
21.625506995719086,24.580871551633034,-13.583092217299933,10.555311993525542
19.945635896937592,20.092025820620236,-9.956105891096652,11.739678860032491
17.460318480211527,8.354257873807002,-1.189928539849211,11.161862152632777
14.773899903059428,-3.7852904476798064,7.439372984232099,8.989955319474875
12.924728253590757,-8.497442460194355,10.257338302108561,6.576399003076936
12.757256920922453,-2.270364547798356,5.085448157271977,5.703559379081313
14.258188430829591,10.65836738351473,-4.397258997877312,7.628159484879874
16.5895370392338,20.353734361134897,-10.520390522666888,12.142091490651376
18.533570780752925,18.109566319103305,-7.099971899446966,17.302358236529482
18.86201675907337,3.037076382648184,5.705736688439867,20.52955967888172
16.78847115170662,-16.800473544959384,21.05305053718361,20.43988065257723
12.61634934174391,-29.466768832815028,29.73233661931735,17.67009186190875
7.895966951196823,-26.989692436764976,26.14409225802275,14.009591361055792
4.512221424797928,-11.001896407213476,12.275526679501265,11.093686955906552
3.4140234290095757,7.6847210645119235,-2.9305699118349384,9.958084821659046
4.254242241220594,16.050330567447766,-9.11133508290509,11.103273281955413
6.081834630533386,8.092736543835114,-1.7536595495289913,14.181847585133008
8.103475931363844,-10.674280337992336,14.281139750091246,17.701120727195487
9.948301855521423,-27.48462071769044,28.352641269898957,19.74547548060499
11.753179587463187,-32.177372591545755,32.20501234699281,19.363644878321438
14.149970593680527,-24.461055081680914,25.835932647940037,17.07993518054521
17.639116818789454,-12.647892614318101,16.160820381446243,13.959673523663943
21.48175733793732,-5.5139534476063385,10.107689775934181,10.388396476725404
23.413422446183176,-4.772683366509779,8.577707324100714,5.852119743478233
21.05176706625799,-4.581454908574511,6.475754959401104,-0.22135025462619948
13.952846427501129,2.013717278042164,-1.6124426096258526,-7.321788586260317
4.359076725590194,15.75347807870996,-15.37614527509113,-13.262776510681144
-4.047137787686448,29.52698520288347,-27.855982189221756,-14.917363164343852
-8.318435696107342,33.93719014859034,-30.721722019571786,-10.399971171158489
-7.876112844519341,25.276691196552953,-21.366822753041003,-1.2073651333629984
-4.773033172487678,8.940614251924933,-5.594597742119858,7.946834324187921
-2.433841934133006,-4.620979322146715,6.526856582903507,12.032939086729623
-3.4623207859918836,-7.617041298468716,7.928428590430269,8.962590506477637
-7.952903867726701,0.30639629952848746,-1.2074149109830383,0.5125118913711563
-13.660477674839209,13.28792736398714,-14.86841877271669,-9.298593764052503
-17.86636317660151,24.010792849061264,-25.86658072461604,-16.596748392789504
-19.312888247567045,27.677101034515335,-29.70961056569991,-19.396667171652773
-18.79331255871263,23.153113438459357,-25.78714655234866,-18.351406989419072
-18.32350341142264,12.043777085803619,-16.385619662455532,-16.229476519052632
-19.659138283079628,-2.615470516085732,-4.936219253646483,-15.99268287225663
-23.00655656413553,-17.012501394704774,5.258186413605537,-18.632929627872556
-26.788218494477725,-26.849267642998193,11.411840464762912,-22.698058325194044
-28.94601969499484,-28.476166440171323,11.53036098506052,-25.939498873109343
-28.90698821854937,-21.154756890802574,5.389936886614063,-27.311179651098847
-28.227783200539985,-8.540067484694092,-4.518186850353563,-27.479100214029295
-28.98505000155358,2.8189029979578106,-13.687208161596692,-27.845094180741818
-31.47244469408384,7.343088286441708,-17.97150517743984,-29.22277303288574
-33.65762027203723,3.550444879896053,-15.74519706454482,-30.960228247256406
-32.95754220394104,-5.653535593884043,-8.393122681172894,-30.998155415761367
-28.568087261530525,-14.981978325466718,0.5572566113881038,-27.33805910747541
-22.34061303415303,-19.579029462796786,6.9379993055230225,-20.272874869670172
-17.645320034103168,-17.600069480688706,7.943055045982407,-13.10481676727547
-17.030386540965964,-11.404570341172182,4.014208071984239,-9.826737851375272
-20.183927945601027,-6.11346817698685,-1.0736927521906328,-11.600509593148564
-23.7884074780453,-5.933299091960818,-2.806933290222336,-15.68283401615339
-23.777047910295934,-10.941399272096431,0.5504001853337346,-17.917496980502516
-18.40962331184977,-17.03414838973072,6.589930960485617,-16.099121316483316
-9.527458414045421,-19.06329720810288,10.757538178958331,-11.107074484542881
-0.9390988259537076,-14.610829945856443,9.932500340880663,-5.500245071438925
4.429311502305082,-5.712895062706983,4.767212747330226,-1.3329260415141369
6.225530981657775,2.357469122962236,-0.6496746260186069,1.3021648512772552
6.407887554003079,4.291759992504502,-1.3389483240355782,4.34069449292694
7.811458767414674,-1.9286776141024395,5.338046988197611,10.222325333235345
12.43593414120158,-13.486346349895273,17.59742249489136,19.556313191122577
20.078483943272246,-24.053705801560973,29.779263059090315,29.95921392279097
28.257645388118327,-27.361404282160983,35.54035804595237,37.50144033987635
34.1413578508377,-20.69365577657011,31.708268428697025,39.803473419035875
37.426693096838484,-5.973842632631781,20.129138474421158,38.24909744508989
41.52012720589469,12.004059295516834,6.349797449201938,37.665548466711385
51.336262918857116,28.595907239992727,-3.782681308662624,43.663497985577465
69.06076847904127,41.464975493792046,-7.399705899073332,58.940347073891665
91.28798062406396,50.67648500342249,-5.809765949084095,80.56013939193349
110.1138300818196,56.94449017604061,-2.7949691195321806,100.58247439711525
117.83007667843412,59.64636178886419,-1.1500181119347759,110.7121231260531
111.97110643243994,56.74552212957202,-0.43228265910779434,107.87000990630837
96.71621926625738,47.18066813049303,1.7655796630132674,95.76022278066368
79.22248985678692,33.39993733971304,6.246890347127471,80.90485121724424
63.94301276235551,20.877796729314994,10.333634269525659,67.14149254388838
50.16529714865298,14.328065405291474,10.033481121351207,53.82410904912249
34.91697972215666,13.919690340309137,4.173811661830626,38.606568401561425
17.743950465327593,15.007726964585268,-3.7561138875341227,21.061423818663833
1.943349413578228,11.716621335830173,-8.080962255841442,3.3596695493658473
-9.02055533849325,1.5985493321645836,-5.764192898325517,-12.164178296229595
-15.755376509843382,-12.110862315900274,0.5041376793502642,-25.703811601687914
-23.097601412295187,-22.54829454769665,3.8911678616340164,-40.04530152499405
-35.96849223779243,-24.551497884607404,-1.0209317814246661,-57.660320013545736
-55.00677750682504,-19.291826034708343,-13.116979977501456,-77.50472583235245
-75.88124774643083,-13.943252221681519,-24.89512803063919,-94.94517594455243
-92.49383186876314,-15.991225239506296,-28.36341406857756,-105.35095591391392
-101.04219392232973,-26.91334964215197,-21.611287290960963,-107.91009961203704
-101.7476859294665,-40.88084016574492,-10.121964405214232,-105.8081663179045
-97.51257057382884,-49.40032367481841,-2.03526993991436,-102.91019784253162
-91.39351088428113,-47.44965367252583,-2.142473365702556,-100.72474457074793
-85.23202776798475,-36.1764645346466,-9.553643137602323,-98.35645422753748
-79.91060904700778,-21.207047743152504,-19.555447657566397,-94.32934478967182
-75.85574385594391,-9.154316642775704,-26.752519606496215,-87.76585112030311
-72.77144801984434,-4.9214797007047055,-27.165026411143256,-78.40990507948408
-69.2943634998353,-10.275089833339411,-19.297359539135833,-66.59006177520573
-63.639176363041855,-23.00876516714292,-4.9219862128670515,-53.34764390424592
-54.8379212409871,-36.89382601683475,10.835822665553643,-39.96521721512797
-43.20856776541599,-43.723130092780515,21.29821250187665,-27.02435523660461
-29.703829486530523,-37.802453605291575,21.946132040803196,-14.121944766015186
-15.203950388686437,-20.400004258592027,13.852468108310417,-0.5327931079298113
-0.6055058682609092,-0.016028371971881786,3.6959174727327877,14.092229437785262
12.717122508960273,13.197008375672485,-0.7852316488691875,29.435106252107413
22.95045040718415,15.106726402186274,3.0609908746374512,44.15475754643886
28.585930039979253,10.577411332919048,10.494595706077822,55.665467611635755
29.436986365879573,8.524965932400496,13.719903419339001,61.22881092201537
27.31905506855214,13.354760624330781,9.37283203633964,60.32709445564994
25.69530244303537,20.83455493815469,2.09938023106436,56.04703708866491
27.901024906015174,22.200952319641527,0.6444442936949732,53.4952174056569
34.79259033171145,12.503751952222293,9.998944387698241,56.28056149760103
43.80796890672143,-4.299452234902382,26.596812005829282,64.07780509816362
50.657593790946244,-17.61662946944982,40.458527750297634,73.05636356843642
52.439560715620814,-17.739442309518612,42.255779479254315,78.49266856131044
49.55055059675656,-2.575198765733431,29.662796500514414,77.66007967361763
45.00568601485185,21.491077738947585,8.307596507698856,71.19450750553324
42.11004947676929,44.692652973806396,-12.872474207258763,61.975487621964625
42.353887733280594,60.03814191653646,-27.531969739205433,52.323026461556005
44.71893784318022,65.49819184257026,-34.24114344877159,42.12133804053452
46.64495899262013,62.05347028848876,-34.50587492272049,29.96073395041774
46.108049675072024,51.47711403711569,-29.919762636110846,16.165216611711724
43.32656826991496,36.29138018199523,-21.53199761860077,4.144407418803601
40.436182800366375,20.262797317590074,-10.893404455512613,-1.8888531400728792
39.16098698259159,7.1171261130448205,-0.40626092014668685,-0.8137380499265926
38.76280318412878,-1.6320406507129865,7.653915291373828,3.7096995327476776
36.55393904121226,-6.9043295209515065,11.988283453402914,5.501227535208045
30.576300294737507,-9.705140047126106,12.009092229338847,0.4089846086779609
21.68892400572732,-8.876487619990545,7.26115562916366,-10.296016819365954
12.949168919427969,-1.7967085204747228,-2.2622978256440707,-20.483520186562963
6.906708850049131,12.095882750283218,-14.962070097120773,-23.835067604796073
3.2921845037687336,28.067793159059665,-26.849392292933228,-19.26684042857156
-0.8968456595072783,36.61988551165599,-32.31067218052661,-12.271379286563107
-8.89620182472381,28.675730078793958,-26.664240125259234,-10.458134404886996
-21.180255200137697,2.5016851639174473,-9.497096591638794,-17.155199197551564
-34.47267363952588,-32.888248783760226,13.436225047945586,-28.971797142383387
-43.782466271465466,-61.60154270922795,32.10070244706737,-39.10798154971728
-45.84002054211572,-70.53850703190297,37.922165084841716,-42.65299074730718
-41.046978100136016,-58.05282512598524,29.644834791130314,-39.23490594596865
-32.66242335435551,-34.537594704838796,14.176343694388557,-32.012135228112804
-24.567761208248253,-14.205189032837039,1.0964246415607282,-25.10208758194469
-19.589090258447413,-4.952152173951171,-4.5533099307918405,-21.496312826468905
-18.887396798587613,-4.640717712055212,-4.880580582215989,-22.164864633062876
-21.852173177319248,-5.952405482398088,-5.367784641475991,-26.322926341886056
-26.39051280903575,-4.409507627378568,-8.827590688788288,-32.3557895436569
-29.96292929602161,-2.172413794436383,-12.722554311408112,-38.46761014611645
-31.01920757767608,-4.826167966657212,-11.903400164890387,-42.6914718048928
-29.773981883620948,-14.859853036766099,-3.918746771634954,-43.095714943123724
-27.794335596203354,-28.20183900538567,8.02056744716321,-38.85603951402402
-26.887025447549103,-36.90022267655846,17.05323074081767,-31.22185170830835
-27.981068511745928,-35.161776968758346,17.759014657715685,-22.881080780431436
-30.392843562027434,-23.30842703822406,9.908936564382715,-15.995397026703898
-31.885335720624262,-6.981890637517287,-1.79897934107109,-10.809430550228033
-29.85135620152827,6.649817085442544,-10.98281582688273,-5.9675475330801335
-23.051602371419733,12.514605836862946,-13.035612283964262,0.1443735907811433
-12.54043477421346,9.420821084124386,-7.002599254701219,8.126018822128025
-1.0933209130123056,-0.24585371545774193,4.5242213019276845,16.765079127464464
8.091169867189294,-12.538209007546286,17.19015092708856,23.08566775506573
12.407963423169791,-24.279044167444543,27.268646600724328,23.88022833586255
10.646425709121134,-33.739794789974205,33.00409073609783,18.3133095930904
3.972598757578077,-39.393557576604906,34.18479339166084,9.496899161201778
-3.64786896848572,-38.917968496715346,31.06008705826318,3.164468154585953
-6.921127774375573,-30.303658999167705,24.049323052042926,4.072468300310271
-2.3945762566972757,-14.011447442927269,14.152322281995517,12.809751536370815
8.95269676524741,6.354560025123516,2.98321207231912,25.280061317559344
21.960921755622902,25.613329312112462,-7.7621560136965275,35.204689296252994
30.433065063767575,39.27785780296985,-16.558140735489665,38.255457814435616
31.080976913817562,44.91170082110586,-21.719106428825604,35.24893548506026
25.76153432821457,42.31919939028748,-21.35168414238468,31.72703207284282
20.59688977640356,33.14352249397258,-14.337771969439755,33.54919046484221
22.356997659383573,20.35745764116649,-1.7527974006908904,41.95948514946802
34.14945545039829,7.794681799526478,12.687496584240073,52.7665409408619
53.04741072763962,-0.4275684209244012,23.837394428393914,60.39660205575382
71.20193309604423,-0.8748650704977059,27.292712901119636,62.58626391966686
79.93314999503012,7.899253347342918,21.223511624856613,61.262678439087495
74.63768405688138,24.36962287074856,7.052968161105908,59.633508564398724
57.73458402404174,44.16408657102623,-11.091408138164898,58.97427721828466
37.46343899590091,61.445902475728516,-27.87319955442931,57.739583698669
22.607086312727926,71.00463614087097,-38.75963172247095,52.94539747425843
16.538540618062974,70.44544336798103,-41.959325049777675,42.47214960484906
15.393656015894516,62.01494283110708,-39.64826192906857,26.817732171794013
12.098867749988678,52.913512573700785,-37.69610782753552,8.954582480870755
2.621141128776359,51.93567832656023,-42.73655808558634,-7.872613676161504
-11.254932783705872,61.797271737235214,-56.3512038943412,-22.486496920271748
-24.661523211953128,71.86465912014756,-69.7572136490406,-35.95573964651661
-34.53097296900411,60.24960281178811,-65.63031520625711,-49.696168554324885
-41.80447790713615,9.479150652107094,-30.309298930332382,-63.709914868090635
-49.477973701124185,-73.5525825407608,30.79558114204147,-76.32501056891456
-58.96038531798646,-151.99044523729015,89.14646758003707,-84.73938961292427
-68.12903718766056,-178.39639219490428,108.472715622171,-85.66019073953079
-72.59587484577708,-128.17219905272597,70.58704592402972,-76.76452845911665
-69.22625380062254,-21.434409915578524,-8.531097480485412,-59.302251284124644
-59.214270274365376,84.88748493504113,-85.82099628387158,-39.67377568165411
-47.90340432281311,130.62337379408203,-116.99191025173475,-27.095193130921924
-40.890131406061414,89.73768917728646,-83.92765173594655,-27.772766419705373
-39.48649902577042,-12.473895139308441,-6.340031681487065,-40.0709892464873
-39.68672365307847,-114.44271988749978,70.11608430456195,-55.05331014435038
-35.62352047635509,-157.70092514418252,102.89260790505263,-62.282797267702485
-24.291614509311447,-124.35958469220188,79.71122993682664,-56.426396912855246
-7.557725828096899,-45.25991949279518,24.02730376408921,-39.84209182304148
9.553150171834247,26.506466336244088,-24.87223725159394,-19.728002449321536
22.24003993612128,53.98279780390898,-40.23312351896531,-2.63773134250715
28.393430514180487,36.65742593396464,-22.590887460896795,9.008655419953966
28.957032424518175,1.609050874426102,7.0219234247583335,16.001111050170017
26.590638717063296,-21.36630282210433,25.647512411805884,19.061343075127954
23.957128635484032,-19.385106307389623,23.27805665066443,17.413550168030493
22.807416300447816,0.5546356653346026,5.573363261367387,10.658198399788514
23.892124918460965,21.882829773195777,-13.678548069662604,1.0560614435656535
26.847241914123153,31.087174472256205,-22.713467591941605,-7.095669491857818
29.88420970539454,24.151410030745833,-17.714110160010758,-10.448963923712428
30.364745779504414,5.510392782305241,-2.4369281484253653,-8.592476837776015
26.759532143437447,-16.75045292176693,16.018084491382083,-3.4180924164981206
20.25078072356397,-35.559596320674956,31.54228093264931,2.490682990887042
13.72673954504562,-47.59057333506837,41.235086908726764,6.6078995458604
8.775850374775144,-53.477260669754735,45.26058181052414,6.851869760119893
4.103954824427428,-55.49952686000566,45.14535945227974,2.872456779108293
-2.5545111444211464,-54.22638015940545,41.801398794910725,-2.424053170748594
-11.121007342361601,-47.0972366171515,34.76628463189283,-3.2473705447710453
-18.220450026662004,-30.85701188899158,23.421053192966724,5.948265277682203
-19.61797001805134,-6.147606325950558,9.156847844711542,26.275165817275568
-13.57561706121471,20.11344951599833,-3.8128098883504387,52.16793576171126
-2.243502506047841,37.53162452423058,-10.340517432785461,73.30421691438441
9.6245239872719,38.65132992685835,-7.696225858894676,80.34724308241721
17.374756485999747,24.04665854743158,2.390874297493459,70.93714226592411
18.82996594383335,2.0781247775686125,14.64580902222486,51.15727893379358
15.085230515327249,-16.437782278963535,23.320694162404045,30.876846721608345
9.487763927499048,-24.593792932260744,25.247756951696466,16.905627859610096
5.738541846699378,-22.279202136607918,21.075207394217436,10.075948419335429
6.4094895875457825,-14.056077735116311,14.21182228647066,8.334680396224092
12.23050413237149,-4.566954845704148,8.43309616583293,11.718189068280603
21.58433085713697,4.226632444839795,5.877619459811663,23.273197062845927
30.262048016597525,12.092404999938626,6.529470433685411,44.43706174282594
32.703571454853304,18.183473007620197,8.780280263861842,69.57610237937514
25.23932100065646,20.733764681830035,10.157573592038608,86.12966316624117
9.322344025186045,18.96979441926068,8.251600797275714,82.04596656975087
-8.394643381307207,14.306354691211114,2.2413991682236687,54.98138463881262
-19.975822307607128,9.109346660493005,-5.931669065125726,15.068454913104036
-21.330962142083056,4.814150731211,-12.556925433595575,-21.694954376484095
-14.570984657464228,1.955768545538716,-15.27397206559264,-43.8046867512014
-5.915404335501,1.8796508376482668,-15.568596396441817,-49.620420838097765
-1.0889108625773085,7.472689052562863,-18.003728579738294,-44.7177916679305
-1.9728395463364523,21.141806335333246,-26.59754741670629,-36.0450810385594
-6.839313835885907,41.36820823589657,-41.29914800690974,-28.7926019813387
-13.073767604635488,61.36799516927665,-57.28003678213023,-26.285327008701355
-19.167767513654155,72.38546419976674,-67.64948627180499,-29.382532242632593
-24.18000791167902,70.03214127323291,-67.88794876585933,-34.623984200787504
-26.219881852383164,58.25404157551096,-58.86604616093007,-34.595295334781824
-22.779322256513503,46.53314495552864,-45.98313013256337,-22.79677751916797
-13.288759312332452,42.11956155575637,-35.05347682271744,0.1342572505766505
-1.0705646861817961,44.452082839076354,-28.63295514298085,24.70281183958078
8.05633007283186,47.222835251644575,-26.05071999155469,37.81042950091802
9.807362854673222,45.93653571441102,-26.48575933514839,31.476810149247505
4.56590367435318,43.16751551093009,-31.18468388775403,8.44126215035064
-2.965672923007938,46.00849593269689,-41.99442594530609,-19.70068900744203
-6.956391630095013,58.0819404568401,-57.613675229842016,-40.4088617482867
-3.9444025678854486,73.98009722835948,-71.76648601931791,-47.96962518455002
5.397517957848191,81.84246773251559,-75.95403882294761,-45.26331127124957
16.92635632759568,72.27107297612099,-65.14700724538433,-39.07785150979236
25.603534171328807,45.99141877796488,-41.85157548262233,-34.032978758258125
28.366090918713557,13.686396188279547,-15.003721132964627,-30.42347848220998
25.414136999973962,-11.860745652816298,5.790386764316722,-26.54155148439351
19.289416767247157,-24.741264231836436,16.346989903236487,-21.90866645229514
12.814868106157991,-28.80180711405617,19.62694931567956,-18.271205003050106
7.416957070608004,-32.77459593349474,22.029077335087024,-18.216735571268117
2.6181667600634624,-42.63757526204441,27.868581088370252,-23.006934509381573
-3.227691831565901,-57.81866344100958,36.86472491077879,-31.14901544548774
-11.350641294426273,-73.372149576052,45.97445396663097,-38.78488666556473
-21.180219935764164,-84.75457077078688,52.71780029820206,-42.071574750527404
-30.43689399346316,-90.8265485483578,56.813890799946186,-39.877626000964455
-36.79772750915643,-93.8317760006176,59.823538365434665,-34.194210251261154
-39.57670100645243,-97.657319073276,64.19004457828407,-27.714896274236132
-39.85182015510821,-105.5457420209092,72.11103923477839,-21.23435072161533
-39.23067074031883,-117.87713598422607,83.93538351283561,-13.736180456153697
-38.657191601513425,-131.22092405628936,96.94296416224404,-4.7764485732248945
-38.04027123033809,-139.83503553345273,106.12932430083646,3.8321167807435432
-36.49366243362653,-138.99420923880467,107.04078267024455,8.922341727436953
-33.00829634909737,-127.88604274717339,98.6281860094133,8.445119142783351
-27.49820783168331,-110.17704971591606,84.03028125828936,3.2708063776949716
-21.39461053721228,-91.96754717646432,68.82561219193671,-3.0031768111526196
-16.672517381461148,-78.37422285684515,57.911201139226385,-6.142372205101243
-13.771436204781805,-71.02013589251892,53.08899478892023,-3.97071251683626
-10.640756072746518,-68.43809197954683,53.179900659219975,2.36991836911146
-4.366908044843088,-68.80760191844124,56.32979303384942,9.808159605143894
5.957845103909995,-71.44112070083789,61.515019357079694,16.074172786432904
17.91003736952512,-74.27525473821174,66.71594233212915,20.96252968643575
27.204678729049515,-70.02318073314386,65.75930153941712,25.119066023986015
30.674876905085913,-47.72508374802551,49.509385956186875,28.373432994195447
28.46883873524306,-2.6679185946885613,14.036418795991882,29.86494020451419
23.987290715107353,52.45122206023618,-30.188063226432796,29.509895683237954
21.60805325496073,88.4485265761374,-59.166822284669024,28.63284583188
23.65891689992881,78.84262966095952,-51.22538737804232,28.912280333790456
28.772141255364474,25.65303615563101,-8.008322174609232,30.868729567625735
32.944704746404035,-31.91910245230585,38.67968032977594,33.356324006313706
32.60112419329265,-39.811285208412144,45.156480798922665,34.45888982386275
27.43032826742445,31.2897431827672,-11.97526033732669,33.36912159791731
21.086812701687535,161.75121745661403,-116.17031907034894,32.11250380983028
19.358434416225677,295.4626281793915,-221.11586289581786,35.25135420361588
26.676761947729506,378.05296484084494,-282.26137096497797,46.59532300047238
42.612207313544815,389.1238594943909,-283.8741118136661,64.98795086818873
60.56064766991523,345.8277246871449,-242.32207718321172,83.27253728029989
70.40638948263096,281.53764122035943,-187.79249549225932,92.31491323157852
64.54061331029258,221.22097824514697,-142.3464636620197,87.2586249342629
43.47327281234496,171.67630988961994,-110.49449277119012,71.0410687195414
16.575386193035406,128.25230418967877,-84.89010602690993,52.54946020502078
-3.2570467547566198,86.83037306447913,-58.05985646809948,40.89096234186699
-7.449688911529202,49.67426322509633,-29.605582597245576,39.792591300798065
3.5149794712884295,22.367241623971616,-4.875637661524804,45.9837447386148
21.56093292547278,7.158967787419469,11.406409711312085,52.62570384784581
36.88517718500517,-0.26423590721537193,19.950067934933188,54.71920467472345
43.37507885342284,-7.962794790160833,26.057010113849714,51.466043627881035
39.91697570313923,-22.04909168119019,34.62831454428775,43.72909297638041
28.063601433215993,-43.22339357761691,46.12920448023578,30.375655396396827
9.624997584856903,-67.49838783713233,56.92514387905728,8.644705033297786
-13.214466864531786,-89.06004021409544,62.725992186622676,-21.477490598792244
-36.45275370264635,-102.95032635726392,61.68819427407801,-54.32283285558664
-54.73899004127364,-107.54923383075476,55.58180646795015,-81.26145811865128
-64.58970469244896,-106.81445625215908,49.44355272472309,-96.9448960469048
-67.2543254486531,-109.66203066649098,49.64621343686706,-103.21311684327651
-67.76387955849394,-124.34577395339875,60.04384057879418,-107.41149617169758
-70.59986736122472,-151.2329959973382,78.33498167963269,-116.90964921178433
-75.99123374825082,-181.0383779358382,96.55322216838798,-133.9719079050407
-80.09181819713302,-200.91127070554148,106.28584653019794,-154.11790733486276
-78.46038680551113,-202.6019773483916,103.9319669926591,-168.76153885379918
-69.58403869809891,-185.52927754360678,91.24108447948056,-170.42673665268404
-55.758525240852556,-154.11822314519145,71.93813384523996,-157.05496287710437
-41.15367088510992,-114.28917416942636,49.08591162279647,-132.50796437141335
-29.04800139541875,-72.40268682275477,25.440953861776997,-103.55516607588783
-20.58497869974697,-35.31767251366192,4.605150187025423,-76.38251738913948
-15.72510004633864,-9.144935346199926,-9.663204173745925,-54.99540182051606
-14.684381537403391,3.0011865789761965,-15.39786373296312,-41.122452294504754
-17.64806162572285,2.1058738107641233,-13.23499140856121,-34.13832724424536
-22.951047317612456,-7.6998757823229615,-5.377717207875503,-30.950066960845973
-26.478947876759463,-21.076580216745615,5.7655979392142065,-26.934287122454357
-24.113300060780173,-33.04253976348163,17.909846146919513,-18.06510274749589
-15.261362935617276,-39.71290761137202,28.45691400927053,-2.8977874215478603
-3.6443060688116304,-38.381391646100326,34.31579469932387,16.925824277723144
5.77914237549045,-27.50400534084914,32.623450312158404,37.826466681597815
10.783249437437041,-7.430301382484647,22.415359464056092,56.318234435026966
13.096572780596185,18.264012976695813,6.323156928080853,70.79076802066547
16.31164882527149,42.96397210194647,-9.72745492252145,82.01512745356608
22.88996182837822,60.3821345264053,-19.8652217404046,92.11237128764694
32.73506967769033,68.66236797959714,-22.166340360653813,102.84827531341593
43.851980206517275,70.40797154216972,-18.90059116112837,114.45369065658488
53.91742353046318,68.11863945581183,-12.771673630784381,125.40060835456433
61.285261249704554,60.71742304098015,-3.899132646862121,132.91556383964064
64.90792744564692,45.98899827390792,8.56991672824544,134.1909375170795
63.95586758683018,26.364319393850888,22.315742872272946,128.1574250818601
58.18629624691688,11.176475271177459,30.425042448134462,116.63836150941594
48.88576680515269,12.040167048505372,24.909012804279282,103.3778367709035
39.022144399449076,34.347377579534694,2.694521952427262,91.26210751238597
31.84686075093345,71.19036083941731,-30.343827123577416,80.18347108278539
28.940614943938748,105.16362103509043,-60.95094272739019,67.51191354799714
29.352121771931486,118.65075935167405,-76.07360364784337,50.55263347350237
30.402272196836808,105.86523579843953,-71.62737052371808,28.887645240760516
29.45852681528893,76.49122986488229,-54.890829040402146,5.249885733125429
25.64691854097065,47.253802085645056,-37.842121608624716,-15.329554719367094
20.54544462648074,29.203864908426972,-27.68310326370088,-27.978686003481283
17.06001434409753,22.21787436731305,-23.490098158477263,-31.11408498345691
16.737751726421997,19.93839640141667,-20.903472891044764,-28.001779681736146
17.619506333041006,18.124777127547357,-18.528710128713712,-24.930842887577324
15.12575988884464,17.98860575879775,-19.338505785623155,-27.068897408240993
5.890139523197217,22.756520213542924,-26.604320048129907,-35.380351595837936
-8.811274273785585,32.157413103022755,-39.118608283195975,-46.81037472918036
-23.44018901683363,40.561477008169675,-50.447566515762816,-56.78736514397419
-32.22486334443424,40.673938291404205,-53.073751485523466,-61.7234117455241
-33.29486996632391,29.494531005643005,-44.02688154809403,-60.33650899610124
-29.51984679293015,11.007135528990679,-27.169592225670222,-53.82416101666229
-25.689643312191787,-6.911893970693189,-10.126094577672848,-44.96561783038129
-24.61167648303616,-18.397500644023577,1.361532780362747,-36.466521958427585
-25.367503786447358,-23.072721993737254,6.740984798061431,-29.756143643568866
-25.084678057175903,-24.786981220929675,9.335516176796819,-25.2591088180088
-22.478760691238456,-27.74530955612811,12.531972594678967,-23.388637399768925
-19.6513747808539,-33.607827367040514,17.234338896507317,-24.575167073528082
-20.207704112668154,-41.118773867631084,22.12994225415815,-28.15144400580561
-25.537067622146637,-47.418329363370226,25.39958777082339,-31.757747292238697
-33.09345126890336,-49.83220072022584,26.075418582409522,-32.43841922366
-38.33707034388472,-47.68095579754983,24.690681872378388,-28.546877470000897
-38.159271600412296,-43.36065953391802,23.394150103761426,-20.732274822161735
-32.553586877858464,-41.232127872738914,24.995416791729443,-11.36442192579203
-23.742511269185336,-44.22137133190381,30.790070937258466,-3.0840517086129635
-14.435905819752357,-50.88721361476876,38.82801959579161,2.47482115823126
-6.7673807700993045,-56.04865451307548,44.65761341782461,5.064438144003407
-1.9920875774232834,-54.67694648055507,44.27324782475521,5.200444080956362
-0.4926471148243714,-45.69548071538868,36.87901156130538,3.282930921519164
-1.9383538287715059,-32.83764981479147,25.529867827799016,-0.4555610859962702
-5.398735906855386,-22.047091238493937,15.297102504017545,-5.077293872948075
-9.14925006789195,-16.76832668697641,9.71486222489191,-8.427105363373958
-10.62782538700248,-14.342504123373786,7.684570514310124,-8.092249610767414
-7.506264942550236,-7.612156188430144,4.120579638215873,-3.170006702193731
0.3268852120789087,7.829830157781334,-4.821695695058769,4.9133281679568706
9.827633394543996,27.10707773339118,-16.48012007783211,13.296001884996887
16.5244556048585,37.98390742378686,-22.510269369410654,19.382369090096088
17.88487464194575,30.940478898818768,-16.052830420384694,22.034972004529507
15.299551568440451,8.139813686051575,1.4843772468122474,21.65318452519836
12.720375991901143,-17.206209375508735,20.48775736344019,19.23696091533582
13.058785853015339,-30.350997377151778,29.812487191597526,15.12954458224511
15.55022272048656,-25.273300839122623,24.437750692758424,8.72511901221431
16.55307736561696,-8.025190342760217,8.602762826520099,-0.1002120697102554
13.213497382147718,8.516335610250879,-7.34576677662201,-9.184630629399193
6.576901046236337,14.016331090604838,-14.040355805215016,-14.545480899913938
0.9030335901635149,7.179531673664599,-9.192929753828613,-13.657380138834359
-0.39810207954181226,-4.951094164283966,1.6048219137368078,-8.40971084227097
1.9177404413277264,-13.324013500342199,9.677666784280198,-4.1354294322131295
3.9458185375109753,-13.157227219405739,9.57971282418393,-5.061149323804117
2.933121288032731,-5.724284595435718,2.135959437817187,-10.433504477381176
0.23663540690287768,4.201608059851568,-7.284127492439837,-14.964522303460663
-0.12420759154192891,12.131830313206097,-13.101052415235111,-13.121010873324767
4.340810323924494,16.35234086415455,-13.272608564924552,-3.616177649722923
11.869079996560496,18.409301953149285,-10.391321450435015,9.331523248563547
17.569249432495603,21.6820267988933,-9.647050374643564,18.82309607550638
17.20092279020958,28.551274898266577,-14.778113602174388,20.103323638553576
10.532264045497955,37.80047043110591,-24.69765858399098,13.765828017508092
1.8161559072940818,44.55229778693684,-33.59804668327951,4.928433812839658
-2.9912908623352923,43.434153579950475,-34.867950455415745,-0.6304055840335407
-0.3374039210522635,32.705621579521555,-25.851214631179374,0.0438589758707678
8.524934773116357,15.940756036393509,-9.711110301184707,6.321293211749414
18.56526820516271,-0.054376403757293176,6.723056796694127,15.3606690068062
24.32342736890156,-9.300838965056558,17.088367513828924,23.845929526054437
22.868738396992565,-9.762873724001496,18.72512341943386,29.358772689606262
14.70778124028407,-3.874200585387508,13.468878166145418,31.31664065483277
2.942531247316379,3.2393761218358077,6.1009125260364545,30.861141821390547
-8.339836743935933,6.433882197108058,1.6240609308275185,29.39807923784594
-15.836886710767057,2.7498024254824447,2.8989404438447615,27.176905111507015
-18.357650540247,-7.411322217986643,9.633696937743588,23.673873761726696
-16.89165764870716,-20.12618189618567,18.702080941156837,19.292232993290945
-13.333316621096447,-29.174393639061698,25.44544426540184,15.954893474246694
-9.04650999582604,-29.19610716956515,25.933533923549366,15.493429917892017
-4.541710707016508,-19.626622235528703,19.567254509417435,17.598934000148873
-0.15470607723978794,-5.971730545853936,9.939968319848107,19.63013646404382
3.44745301542645,4.009346422657933,2.2385276923863104,18.424575898578425
5.597223925151408,6.707030150880522,-1.179670524390934,12.488658872820768
6.310301618634939,5.600190585450397,-2.707690850645205,3.1346565876158614
6.503851192665592,7.58567138724576,-6.697181161279809,-6.026782039046286
7.442167507218561,16.229919392323495,-14.78352242872301,-11.238014651632044
9.718480551590023,28.367512136505397,-24.06628037441571,-11.303621023403565
12.526603962297786,36.80087218207266,-29.618241596022603,-8.626749046902644
14.014508490737382,36.26461262903325,-28.631545476406025,-7.290845442322701
12.660835605119159,27.619797552141748,-22.688206841194308,-9.88233643220011
8.413696043054134,17.146539910692848,-16.688302633617965,-16.160615695689945
2.404106646500729,11.541664861241417,-15.301721930752198,-24.407011153394105
-4.330067797273938,12.460328480069109,-19.335270602950413,-33.290546261541714
-11.534945568821144,15.087287822826143,-24.78942442685217,-42.19991486966961
-19.15843240232833,12.177384687175385,-25.736315918283175,-50.380665497967506
-26.447464048511986,0.23215799832819015,-18.912420571388406,-56.345421314367826
-31.908933068041268,-17.534224475728532,-6.131328453150534,-58.16203904046636
-34.15138875525434,-33.698786144150276,7.320302384530773,-54.409938763808064
-32.80425500901733,-41.833409517861234,16.32059623801848,-45.460281299745546
-28.962194715479814,-40.0177407955238,18.42333964894696,-34.225705161627
-25.000529013058998,-31.017346297279506,14.30197414665899,-25.121236052121617
-23.5889633999412,-20.39697915197419,7.133258076262511,-21.31026768909146
-26.016708609842297,-13.93558977279773,1.3895340936419565,-22.458135756720374
-30.85561298369663,-14.902044616067236,0.775173591080472,-25.100528326885332
-34.31809590637739,-22.293973742468463,6.150483756081452,-25.023751200439605
-32.438726855972504,-31.410697894105724,15.137806304461744,-19.298551743174176
-23.561732783535454,-36.34581764196089,23.558945815579296,-6.973035546195959
-9.415519654493394,-32.45704766567587,27.155764671165837,10.628078276772888
5.698052734600591,-18.06732970453797,22.955278412226555,29.566512636105802
16.902391806984564,3.8746047327358246,11.076023189774622,44.10781121690808
20.88032775494732,24.985497797448115,-3.6290242222093716,49.37230545626415
17.159513997025517,34.295963067067845,-12.867268861246275,44.2355279803726
7.9740712056806835,25.08549440031259,-10.092187746529008,32.18372871225953
-2.9434684607595076,0.7679896518966209,4.21663102709691,19.5676024314925
-11.592000170397167,-25.981349331060425,22.243367337067387,12.501945932108155
-14.439911605695736,-40.97817800574597,34.09161236307193,14.018202828511978
-9.232471733427582,-37.277931071343424,34.236223154366066,22.7844973869542
3.741693194706508,-18.776090711955874,24.47552469314351,34.17516712701565
20.947767841060926,3.074842623849396,11.991611643507673,43.07333030163917
36.87572476046099,16.715456850193732,4.297126252717946,46.307280826509
46.9220653063587,17.262592245271414,4.400824986562391,43.10063780776611
49.69011370329099,8.322112104589506,9.454919508099128,34.172109312450836
47.06598092167501,-2.120194890750678,13.87289833251651,21.225913131289815
42.54631057963323,-8.102669207789875,14.202127849041789,7.136574625035719
39.33003429629964,-8.99121756255231,11.362677789818715,-4.440811102807864
39.03432329129487,-7.4668485702244825,8.480453107207452,-10.568056279190285
41.176047779159184,-5.001192854804589,6.866365782374314,-10.43618051245357
43.55929582606135,0.45238889377274993,4.205690460583628,-5.521948312385124
43.56220685566723,12.347938536255548,-3.387195226600063,1.1981593870284926
39.680882476015164,31.02837160548924,-17.337291215726324,6.186044901516345
32.45945503187581,51.09942414772083,-34.10416004798449,6.475441427243894
24.417075668162823,63.56988077451913,-46.49197077717498,1.1288114415692372
18.942959594655026,61.608880431998685,-48.1259686000883,-7.935032597777304
18.226850785375273,45.52778890294674,-37.91875649918628,-16.864629983566925
21.05650834389494,23.0335866644327,-21.179673515775367,-22.135351285028474
22.46834741674194,4.533864175757122,-6.47616747448629,-22.490619125970696
16.672947048976873,-3.059990297386146,-0.4674953437011243,-19.430954885358336
1.6930723752706511,0.06520063805533731,-4.152799225399035,-16.220141077542984
-18.302235569669342,7.472520539717643,-12.665406752927979,-15.821936449071503
-35.54703965418619,10.832015940765805,-18.465775237976896,-18.65661190894595
-44.32626476315146,5.217059420936649,-16.124565892579554,-21.92538312902625
-45.120662611480995,-7.640195772870514,-6.040041598244364,-21.75409058473855
-43.99386305522113,-20.4008520905207,5.537029519217998,-16.710655372934607
-47.77713828079471,-25.30757929108208,10.890619628585855,-9.21054254392717
-58.650795478638315,-19.91493117774635,6.744057303941728,-3.1594345045360512
-72.17064404364326,-8.693641561345357,-3.214311313337267,-0.26594238868067094
-80.41175441648343,0.667757385627936,-11.364457483073561,1.1622539452221665
-77.9209273396698,2.592679696628309,-11.771477037794135,4.031772723851362
-65.5926697671632,-3.7895084044564014,-3.5769531418841103,9.446865719141908
-49.2673124830584,-15.415226355896415,9.542566581470885,15.729335491276403
-34.77048014456111,-27.15598782926047,21.970990948775363,20.035176027406262
-24.289154028191312,-33.47063336308201,28.657208018531446,20.965328288968934
-16.95113227028922,-30.38928018142084,26.964627705289555,19.92674718285042
-11.750287259053712,-17.83230825644367,17.761279722418664,19.87983572861776
-9.003252127987535,-0.5957351941801374,5.176645898472318,22.274681957701553
-9.04930240756805,13.545901827519963,-5.2486606416143395,25.056947581840507
-10.358397597385286,18.185819003525662,-9.349933938065135,24.094569394708913
-9.66407652559486,12.645235879160376,-6.790343524889203,16.949254651107758
-4.216948446092231,3.1053256341221926,-1.6210867240460773,5.292150174308257
6.128113710373578,-1.3902237249241662,0.2800220636216232,-6.235602119305903
19.044938148678394,3.973907774807301,-4.022243774471179,-13.189092666394487
31.735967428924578,15.401393332047151,-11.401279101669779,-13.631272138915946
42.51788961304681,23.290847265844913,-14.788963313035188,-8.599668593504006
50.424258426750626,20.065324686425285,-9.248630196617853,-1.4991403723631775
53.88031906030219,5.83495928587296,3.70319973931212,3.1392548803434
50.86575121452548,-12.702758304795514,17.51650554495735,1.6373440734059015
41.087354726023136,-27.72518973305141,25.74293980792249,-6.876111022870183
27.688114227733784,-34.53687853260871,25.75702630639978,-19.987779222512014
15.958176500959263,-32.2287376358681,18.748500039639907,-33.306342331769876
9.823616939473316,-22.64219237496383,7.9015360535470185,-42.3939626457635
9.425599787718554,-9.795537373180517,-2.835757340839285,-44.42001046291811
11.758929593609007,0.6876515658739636,-9.486989974253556,-39.55635111046189
13.205890076934084,3.639131729931872,-9.500311934188536,-31.641561306873545
11.728277604462711,-2.5571742459850033,-3.5022091914833484,-26.734042581949524
7.71175826725893,-14.376864035929584,4.560234161330209,-29.392160329998156
3.469312804108588,-25.063524010837344,9.799974382079508,-39.14659149452787
1.5013698629764902,-29.15904263524473,9.817646957255286,-50.15299854509533
2.2680492036584154,-26.19054102551683,6.4331504993186375,-54.44590052984913
3.40842129191699,-20.203387972361305,3.987170156603607,-46.50846890431282
1.7879624630886184,-15.218466200691482,5.186847818494705,-26.461072832836493
-3.0773512484727052,-10.789939392279985,8.008902987217251,-0.3048480350948056
-7.701603708715963,-2.460039688844122,7.028486525266693,23.02207090765759
-7.2223245193419405,12.625794683490433,-1.2261289351778586,36.43992240382717
0.1880567455227091,30.48224107509258,-13.72993066827066,38.5490318462087
11.1015060097494,41.55356259546602,-22.182135708036338,33.96258209036679
18.875322783579016,38.32210425029351,-19.58138682177722,30.118049502266977
18.395264874800937,22.19820195200803,-6.191594017304846,32.84489169995653
9.845272479275614,2.855836950975286,10.642604392682857,43.13819528224788
-1.3983099214588612,-9.48424374734033,22.400940764371544,56.5169469289239
-8.697316072674099,-11.598324799300768,25.452964983766577,65.4767745811869
-8.825977820808777,-7.884401391421778,22.19184713095838,64.3107898408342
-3.725948126787221,-4.077190696614254,16.987343930280417,53.438880265135474
1.6820393040860302,-0.6473936261473903,11.318377173867294,39.55540081376595
3.278149044986456,7.192015372069587,2.9993917672597994,30.756264045531697
0.02417195478102706,22.657125223582444,-9.759064447355444,30.38234240519332
-6.242178306205238,41.10050393891035,-24.03818946546538,34.67633829260401
-12.429038050525216,51.765183910440804,-32.990886584095485,35.885316789443834
-15.964941685231906,46.72979096987335,-31.621431689844062,27.973530675825494
-16.05715884657967,28.209872500274457,-21.61391400356952,10.772083965227202
-13.90286176807693,6.92663216039436,-10.026970188160618,-9.845614148984021
-11.601536916297459,-6.510562663202679,-3.3132308658786758,-25.60151034355487
-10.52152679850635,-8.797722054324108,-2.7751412729808536,-30.902195568134207
-10.47579810509645,-3.8799767118178874,-5.309480594653623,-25.885312866896246
-10.218306428519542,2.667312678332534,-7.605775842229321,-15.2761245652146
-8.516211644450397,8.63391035786407,-9.193279686878407,-4.47934853611735
-4.95087835812468,15.149157934555925,-11.743872160930819,3.3684882961721545
-0.28487503235613776,22.650915799662048,-15.951986869339052,7.358050839541337
3.6652982223326527,27.819650881759962,-19.519561802927306,7.226083763420383
4.981036282429523,25.322305321251832,-18.581567046337963,2.6784663460868603
3.131587858152359,12.951641181675656,-11.3628536991679,-5.88660182760532
-0.359539542568857,-5.236107170433307,-0.33430004041553946,-16.525074519071413
-3.062676048261137,-21.34367409898692,9.494420937728053,-25.91820219547572
-3.6601312688435,-29.363991849877124,14.42833407604149,-30.833897304667545
-2.800902165342819,-28.7403037449649,14.199017008750031,-30.295715756027224
-2.0288046578811443,-23.13894558235536,10.816603984524994,-26.809424893632727
-2.0415684761115633,-16.97761265746289,6.493059791471619,-24.783168860706017
-1.991262780033078,-13.492398907033747,3.2538459196339855,-26.6353562098282
-0.37706266301788177,-14.78155446001222,3.514247979124096,-30.304967355794073
3.223286209944699,-21.604747567652623,9.114639436498251,-31.369715706388913
7.006779476965263,-32.2181975972094,18.918451287580233,-27.997202662827842
7.6619268648613,-42.207409898349574,28.155548464798777,-23.27901799054324
2.884932399392828,-46.73964292765584,31.366223507359546,-22.173889337109937
-6.34698313948242,-43.654040991407655,26.536316216349665,-26.342598766214966
-16.168233955013857,-34.570248562731344,16.40286622550113,-32.33369705627284
-22.843067968875086,-23.14927701025773,5.817860400136353,-34.74457260450859
-25.459195282443485,-12.232507218104484,-2.1602636247007525,-30.997400936500128
-25.628132673364263,-2.364628167825975,-7.907493314469161,-23.271253334279454
-24.892113183026837,7.050057821012437,-13.312218967982536,-16.07137201384802
-22.925450526772664,15.157525751528627,-18.292389115828303,-11.781461788965569
-18.30089808055565,18.78800926307346,-19.596766399067963,-8.339187251267813
-10.573877262119485,15.328467669770935,-13.946110742061917,-1.4239609548399854
-1.3615312714951784,6.856099175903833,-2.7372977174344344,10.710986395705323
6.437266666344166,0.13119231390348346,7.3421880917954185,24.514315902887173
10.386906793789247,0.7519351752396594,9.770509361797115,33.382672193933324
9.896712901409497,7.051987462319958,4.561051781947399,32.75214476006543
6.446265343309828,10.927542245763528,-1.4843879288850248,23.37064868118047
2.6612170944319162,5.5672237806891225,-1.2130906142433355,10.52069909311451
0.9827305371018267,-7.669552916153121,6.404222643087499,0.8006072343565507
2.803749539669826,-20.047974180482914,15.942311887033748,-1.0146750528831443
8.203262035386986,-22.815533160905712,20.753517584766502,6.0106994783537075
15.783672161102443,-14.192451735147682,18.320880545629525,18.441466117521518
22.66912380597009,-0.28499428486410555,11.431291803143681,30.163786932443713
25.5486400486605,10.275640183123322,5.082739070988438,36.10512046619541
22.902030593268112,13.295414816802236,2.1739547171214473,35.51330074398337
16.67075513895923,11.755529322409838,1.567091166588097,31.927841473996157
11.364299221478985,11.992670331301328,0.08711189038046295,29.843790626551385
10.941774143692083,16.974380888540306,-3.558751525865514,31.134444141097728
16.16311609509567,23.44086818328696,-7.125786252119368,34.177217460303616
24.641303361338856,26.013062355885477,-7.503719074945154,35.961689017846126
33.18369959022883,23.9198715524508,-4.876988172677744,35.17679466045169
40.06380594225164,22.797854313799153,-3.4325505222355304,33.6989519471127
45.20182073663275,29.100780279364756,-7.385283704030073,34.859176106423675
48.248799883865296,42.6690562402665,-16.46357085824199,39.38324436837108
46.73319854578358,55.07183049991131,-25.551317426458425,42.79666661736202
36.93402243912154,55.53370295010853,-28.584218508280053,37.8970516643794
17.77499276506851,39.28516122498398,-22.900034558580213,21.11811007827771
-5.6942200644360685,11.63880124307574,-10.823073061456657,-3.166782386672378
-23.578478562460557,-15.071413922503732,1.9395749375795452,-25.0188751752902
-27.49410324072893,-29.393919350405593,9.753966487211143,-36.04744854370514
-17.02486549076587,-27.9102175491698,10.32447435654472,-34.96172774943858
-0.6432666792105339,-16.44187580030698,5.547749589537114,-27.462612292960777
9.699736472540563,-4.738778240948582,-0.696394948461943,-21.62791462798421
5.954502091617848,0.40776091755486543,-5.576696294070894,-22.74511043036157
-11.785836213062188,-2.0510078763729855,-8.260136087609798,-30.843090508235143
-36.18085943516868,-9.488809928493376,-8.743369880287414,-41.96137344537932
-57.27262137874233,-18.78781552633963,-6.939000870107402,-51.73108319829757
-67.80644688231767,-27.696711140437476,-3.0833393558017437,-58.150934096383395
-66.26954090358214,-34.70297187122493,1.8103290447140994,-61.32979994719259
-56.19941957526664,-38.69651685927618,6.3769334999590574,-61.26168697152458
-42.84611226476321,-38.75631373645857,9.478274147043038,-56.76202374484296
-30.05610798434271,-34.375642321274576,10.439124620225352,-46.865621403394115
-19.50557373372561,-26.55156804737138,9.502413903709916,-32.738567499708694
-11.876484894058024,-18.555798347363755,8.263321770758678,-17.720586762891394
-7.96079393544529,-14.216793880977576,8.64993038023889,-5.49302319539841
-8.399355342493317,-14.216563478754983,10.576008325315076,1.9400924351286482
-12.523932635576745,-14.418173915426859,11.03986389237807,5.218996853258952
-17.679976903802782,-9.068342691325752,6.6268110677481555,7.1815971207001414
-20.017354842171976,3.5755448524892617,-2.655050209503615,11.007014436588967
-16.623620753977185,18.60689766892877,-12.231794617502477,17.806767612223435
-7.656610833883086,27.475005118906314,-15.901238035319313,25.615341554262777
3.331335500653369,24.270546551177777,-10.417983356876395,30.966417840973786
11.509409303660666,10.428502001240622,1.8118294804305528,31.60166538992989
13.786926457657131,-5.787189866248058,13.868346603149387,27.63990940777166
10.333078236546289,-14.957780714302288,18.739037342734143,20.572577055236028
3.769813359140894,-13.164757682610425,14.105539489468471,11.937920109730015
-2.6700066914986738,-4.109482552571523,3.712049329594223,3.1362304903832157
-6.472712114386869,5.08582763751963,-6.053095546059498,-4.269110128387655
-6.373743573083102,10.158661233974442,-11.270058653359643,-8.856948127330556
-2.4801035499823323,12.01304418493451,-12.485003763424716,-9.945481191649767
3.9682781595580363,13.737220348175764,-12.342905233167901,-7.667021851243006
11.222559535040656,16.68538167527591,-12.352787054743521,-2.7608891343639064
17.57157823333749,19.82231356950664,-12.323348427985573,3.319204140548274
21.480560186477547,21.60504909974972,-11.81379527379832,8.46208915600103
21.840594875304244,21.05663232488027,-10.677411875303568,10.906962285989804
18.83061815926599,17.271494031651713,-8.206448217094238,10.534614269150344
14.585674368833121,9.505346994768315,-3.1048256570609607,8.888404965219454
12.302105722329808,-1.304099424389783,4.819609825585277,7.7983222413801006
13.98387731736376,-11.677800731294173,13.34847809032106,8.199471061661555
18.846758623001374,-17.1672563314864,18.88110348414137,10.164680793635668
23.871610374466897,-15.201989879183232,18.886454373424296,13.381738100016518
25.835706432870193,-6.906358562209259,13.607119338929898,17.109478045239904
23.14950193304323,3.018879756493337,6.16763018640987,19.98013529181319
16.641334960072378,8.190995160159188,1.3108535808197055,20.459340910412646
9.296702857157198,3.927383341566896,2.952689705260067,17.82059538609761
5.073386005217113,-9.318211698970144,11.512962402885806,12.921619803781882
7.174531176435237,-25.29174741177362,23.205479825935072,8.404727083495615
16.653166063339867,-35.41455179325074,32.38697463180258,7.944514781508638
31.914071264692197,-34.0392489977088,35.042118187949065,14.023279084897084
48.85144707801539,-21.543584192811974,30.47885574788551,25.066119520585037
61.512845435816594,-3.531302097870365,20.611975002826785,34.776239356863925
64.00008498314762,12.642238772671403,8.437644154632148,35.70177714439374
53.62512007825376,21.706548249355862,-3.0515018663119604,24.868978819586374
33.13006211287832,22.580037951997532,-11.515963206038077,6.413590143544835
9.376156841859366,17.552419345063964,-15.609665921139726,-11.426368983425924
-10.962130486788928,9.480158203404464,-14.950583411789228,-22.24878876700295
-24.88391023553394,-0.0032819557251887775,-10.191223703425235,-25.22759604659303
-32.81644272660806,-9.332381834154003,-3.610432921741882,-24.04321234560504
-35.9150237456221,-14.968575608721977,0.7713945692889425,-22.687261681008227
-34.57844215713777,-12.388796933194483,-0.9234674467886711,-22.10301222430572
-29.783381303211915,-0.4575657374618713,-9.260772083055837,-20.547486924616557
-25.08371153503933,15.462520401280825,-20.23515290646891,-17.02900279572222
-26.042406527268426,26.12089559732268,-27.95610352374387,-13.942344635520955
-36.51538399314816,25.37668048348303,-29.254367302059563,-15.564954433146589
-54.74424662440874,15.401302788880141,-26.067064980009853,-23.643336242743846
-73.04173592013237,5.343770270405621,-23.67874413439413,-34.9175088842855
-81.97174073148246,4.528799160039437,-26.526265756285447,-43.3446437332808
-75.93794981628308,15.492054648294566,-34.61973345710542,-44.377604844499054
-55.91819332471488,31.769231085326744,-42.690041907938124,-36.88640888736179
-27.92753810647327,41.85302355291368,-42.809116097728804,-22.072950043682106
0.43759082724280435,36.781171664660555,-29.600759340088363,-2.350057999469626
22.393317964525497,16.3344026911967,-4.93885843747803,18.1432226749012
32.96296576071666,-10.517935672612728,21.767948103874286,33.276773392816565
30.2123042073057,-31.196775338307052,38.75159057288047,37.17523198426012
16.97560554705833,-36.90152749573918,38.98506778470644,28.068480818469492
0.851318622819998,-26.843172991743145,24.10581562312249,10.470941700469231
-9.271574902620912,-7.633777544626458,2.987494883689818,-6.556941850265239
-8.453478421733598,10.48562580177664,-13.299629230558963,-14.40506472156233
1.2945374333496502,18.271889497505157,-16.958899266486657,-10.157902317415076
12.682589998165952,11.444096726667748,-6.864156277149928,1.5372846050324533
18.213932796255246,-7.404362106547803,11.519466288022215,11.782299681022625
14.999254083465866,-30.15858080754625,29.57822813344447,13.81505561847503
6.11007788114195,-47.432836129706324,40.281677092460896,7.4572497313968045
-2.1935449968753233,-53.453954648457994,41.40607630448961,-1.8092677644321637
-5.113770370871504,-48.862089604899445,35.816852607911144,-7.644050837843747
-2.2856753236850396,-39.63438981730203,29.074868392049776,-7.083626355146889
2.9799024973311963,-32.21355587882413,25.441057268114367,-1.495626296699344
7.007534958551879,-27.925339662318137,24.38910936253137,5.142624246292625
8.507945700786932,-21.77048605750389,20.737944721857577,8.880213089456483
8.728315886768538,-7.799806580409361,9.534470833951406,8.108576579854269
9.541965400217038,13.432238502174123,-8.103995827180222,4.398615470421864
11.414347077142294,32.92381596508343,-24.1588936357866,0.9241429707415298
12.716721039823875,39.31032715223782,-29.414996408020556,-0.5552209513085478
10.773382523253753,27.67866936924377,-20.687902229005772,-1.2469947875939051
4.091521586082876,3.743293888864743,-3.3661593520015822,-3.660818544231309
-5.7209348462651235,-19.38658462720123,12.240366183905527,-8.488859725020369
-14.206178794230032,-29.179812534463238,17.477678252145502,-13.413926828257404
-16.904221078023795,-21.3180789753752,10.466768395236032,-15.026965053126007
-12.65698968785911,-2.164049888512881,-3.2204498373292076,-11.872837230022151
-4.368195101656534,16.05039346953971,-14.848424046548235,-5.885939378412061
3.4699201915202518,24.15879541284098,-18.8798187723647,-1.0891162616200212
8.08025971043085,21.885088753277813,-16.28121641235092,-0.47305569657304086
9.672260691411937,15.752504184813489,-11.992732760432995,-3.364583441441011
10.122785642192685,11.957457706813313,-9.555417041287555,-5.6867024757418285
10.75897726660228,11.640864853939398,-8.618402375735592,-3.446315309979311
11.195578562879158,12.215284679244323,-7.16836711319415,3.4476194535283757
9.963574564266969,11.424653840679783,-4.746592048317868,10.811276558992237
6.231631742241374,9.133061001948626,-2.664439212715472,13.768988819165871
1.0707596958217829,6.179022685551101,-1.8428809485578967,10.796128873859494
-2.907962178694316,3.2186625145246,-1.6947831324115858,4.672275517325663
-3.1659721262581373,1.1647581843471064,-1.280629558035442,0.2906316989940074
1.4167682137641913,1.8163235708319359,-0.7825699725475506,1.7010245429439996
10.280757492712413,7.044743730126933,-1.446088462621414,10.060322302878792
21.36296612681758,16.95995126720879,-4.326912281723723,22.813813594555768
31.11260501918017,28.66722248690405,-9.105956001567762,34.44914809706203
35.16607151857576,36.81423602902478,-13.724759833222311,39.125377353997784
30.628713643497726,36.219668815314265,-15.242586570565484,34.04504777298945
18.78907759993773,25.446213417247794,-11.789818607802825,21.28966500917145
5.438424630368293,8.51513113069081,-4.143587001937144,6.822614937454797
-2.4921406827312005,-7.467837058607523,4.840471133611864,-2.6512929592107106
-1.7949025277613726,-17.264282816480883,12.493380972638565,-3.3118056584245488
4.535700034703483,-20.583871498662315,17.78714845327057,3.4058305263907602
9.399557575532295,-20.717255855206343,20.70534987343988,11.405828361412096
7.001485207848351,-20.650336558656104,21.02014419105621,14.02465584358725
-2.3410854832863675,-20.454824708256783,18.268066348477536,9.152233020896817
-11.999761903796646,-17.879823305760056,12.691376065689948,0.9036262762791281
-14.332027832854626,-11.376775673478354,5.869832471705156,-4.202614622889549
-7.601966650283764,-3.0587144335363305,0.47278448389543204,-3.320650266165342
1.6145386588328117,1.3968719330893986,-0.8777137375113458,0.004006694444051199
3.3123322035495733,-3.0477589593365724,2.557581807522188,-1.1498250532908973
-7.637207220672793,-15.648125435126321,8.310724583386838,-11.15611224638182
-26.964697198427157,-29.110103504239248,11.773897494826745,-27.92788593866739
-43.982957622744365,-34.75534935137299,9.606210198204003,-43.87995678405831
-49.18902893270235,-28.97032866380619,2.4296462048789533,-50.944029035115584
-40.37940245704152,-15.083576026113453,-5.994628039421115,-46.021626915313256
-23.328097330391536,0.09358863433996006,-12.087431554140698,-32.84167448838048
-7.434464169556612,11.021524102965525,-14.750811615956822,-18.77967567743451
0.2542362400515845,15.881640755126599,-15.003817133306379,-9.36274700592607
-1.2450612829318524,16.235925064941277,-14.364266307056969,-5.1466743214126485
-7.467425975780717,14.9129251419199,-13.628691771568207,-3.074604957424513
-12.371604514844266,13.375454823671596,-12.290535430473184,-0.0653256530981013
-12.258714232282191,10.555997624613644,-8.777003817757898,4.694206724322329
-7.261036870571517,4.712977795216814,-2.0980701761293736,9.833580688206796
-0.3745651635280219,-3.3017138132068578,6.046135969991114,13.062202852828818
4.6218252477146455,-9.425123736161396,11.440807969902636,12.570204484078088
5.3264815791270195,-9.904528616853012,10.757459847286501,8.23295259377988
2.1925160956265803,-5.15781442205231,4.891298639641716,1.9302937411140382
-1.674189996727622,0.8167736314642573,-1.8431107884390978,-3.614642937797884
-2.653601446972081,5.009924166395561,-6.069502459948359,-6.535232938401182
0.8772647821523716,8.488255393834608,-8.276301414641216,-6.350775587827002
7.777138235460369,14.287565336101268,-11.069545013511476,-3.2539553437460595
15.340702648280182,22.60134555228862,-15.121442277493628,2.2149911082188396
20.718163677737003,28.719059553587186,-17.53853607546438,8.44860585303318
21.40867410512851,26.01023285151296,-14.22392586014843,12.49112843685899
15.70392002742744,11.378689330228442,-3.710897228415206,11.572846915763005
4.081090661099523,-11.258434378021306,10.917405052980477,5.479372609309587
-9.596724464318667,-32.41046583477364,23.55135863668866,-2.623616844864265
-19.307852952855622,-42.909361409697894,29.037612789049074,-8.065368864203009
-20.688028006034227,-40.02032318921818,26.561489032533334,-8.081527205972572
-14.566019793867667,-28.56806746877522,19.404662523223855,-4.21258625942991
-6.922587567041419,-16.184697975139407,11.425920310742399,-1.4578963922787413
-4.718268272150376,-7.601838608808848,4.2442405191132,-4.122834551853597
-10.465251459806117,-3.205081610440498,-1.9823203083617515,-11.45187002136437
-19.80917732696246,-1.5240406229187073,-6.1873347501253235,-17.372256037208487
-24.49523551795727,-1.4506051555536383,-6.390283016259738,-15.484369185163786
-18.79153211838666,-2.1975037747674246,-2.226043305509281,-5.070357485968435
-4.052793298049208,-2.7902244408602854,3.713678135444557,7.754908776636626
12.668971931632315,-2.6659624642691537,7.901535807089326,15.11554221670771
24.58348633677381,-2.315162609438332,8.984825599435194,14.02472961143754
30.011320951028715,-2.544780522008229,8.5086583101193,8.75057328325173
32.01543389414019,-2.9780805467587514,8.719073664272342,7.218902847554808
34.177079293930284,-1.514870041950928,9.851738788697455,14.655400651192803
37.073327747512025,4.359955908034336,9.531216182695461,29.30136959716634
38.231883591326785,14.95059139435672,5.057258929605411,43.23620395596655
34.676752745582846,26.318094431537332,-3.199598702572973,47.7585853398873
25.49546982231392,31.45395551195019,-10.766671044787238,39.37847764551991
12.6060798242424,25.310765160316873,-12.410628740874909,21.77397214541626
-0.5199410175801891,9.92696459440576,-7.2652594710197365,2.4040631148629346
-11.057830532966843,-5.981165007450961,-0.24861734131286986,-12.856312770462045
-18.207545766186573,-13.835367768651288,2.3884201629346458,-22.475509819899575
-22.720842998083544,-12.12483593459829,-1.0853735889906655,-28.078700954782168
-25.271394671159833,-6.403333232427244,-6.8938257634755296,-31.589725291236892
-25.4028429295466,-2.683791120884802,-10.3298656909249,-33.39201555176263
-22.024571973578933,-1.448384144546571,-10.575134769054017,-32.41364054565561
-14.850266075310802,2.0027221894817817,-11.031659536220179,-27.65173665278102
-5.473863189312975,12.230543628065641,-15.752672414643468,-19.974228290673057
2.819010096089708,28.827988603444656,-25.708549338987147,-12.509150265152318
6.679406965220781,45.67978644096871,-37.43598792419074,-8.621293187614029
5.06876077245666,54.24108684094864,-44.50491740451822,-8.949644585737106
0.6610249007060974,48.76047412612997,-41.2362539274266,-10.619439043646198
-1.5088612236867927,30.412751278086557,-26.841700278088403,-9.824090812544574
2.0835030483484345,7.125826788853774,-6.762760075365411,-5.337480234190709
10.062858154789991,-11.566469915862298,10.631567854970477,0.3983721041630135
16.587393679054248,-20.751662005502016,19.56383789717826,3.3064407132606966
15.761410957764161,-22.098165959733034,19.843953240779822,0.8067354083968428
6.4524980738810624,-20.474176761132476,15.40046735431792,-6.192333447437113
-6.538487427950646,-19.337136582162106,10.752498691413244,-13.48461537381115
-15.886806248713636,-19.0899150010478,8.604776050728075,-15.940623207067256
-16.994732793199557,-18.566351681122004,9.38939089432205,-10.885028005881532
-11.054930429566776,-17.11459506768524,11.967585368755273,-0.03435814688800106
-3.630580545056238,-15.356651745860578,14.798127998841045,11.894484070248271
0.08923575300848584,-14.359426757153637,16.921275526178313,20.852111096576664
-0.5411786265340025,-14.135709570958863,18.047136181289805,26.05120735389161
-1.567666941308006,-13.122911085398028,18.005233380719783,29.417361515159076
1.5366876073163491,-9.666374891446369,16.686749259096853,33.0816276303493
9.41105543870367,-4.20347663398148,14.623329402358703,37.40981664458487
17.75045144857829,0.4795818749721444,12.963005734780022,40.70203958758398
20.348684695059198,1.4681723341535904,12.432505825511011,40.289177558091644
13.770870323483352,-2.008111265559308,12.726944152098836,34.53725917792232
0.3832968994187164,-8.414426356531504,13.331684550022342,24.826007967627657
-12.376217278848506,-15.279258990278606,14.525593000712504,15.639080667877508
-16.541559106854933,-20.442561387286034,16.967786591579227,11.688896931848438
-9.424245461000304,-22.822931991634444,20.444274796258156,13.973825178351396
3.6661011341882976,-22.888060003542265,23.499163610955517,18.420355362905568
12.628299164375514,-22.12908755777143,24.18854157119939,18.59234801483242
9.738513714934463,-21.28525782814673,20.868801770692727,10.164300120889745
-4.926694997592423,-19.15256273659631,12.74446151801149,-6.324048193025007
-24.000232668426563,-13.916331269834808,0.7206331723227766,-25.949228717289554
-38.157172094336076,-5.829524052271522,-12.001012669016005,-42.31748315400736
-41.659109729172414,2.100269712066259,-21.09270237978289,-51.09634475050725
-34.61769698857052,6.505331619398854,-23.87914219922516,-52.16436478330915
-21.73038679512508,6.470465662129827,-21.19090292735849,-48.89472904672851
-9.153040163753182,3.94575863273143,-16.387276597905085,-44.90310804477682
-1.3058001809917625,2.143593667104348,-12.770212078422825,-40.763557770324326
0.9800942717271526,3.993856290795027,-11.956839601461475,-33.44301915425011
0.18622662976149562,11.11335664025797,-13.829720587824182,-19.015091174600386
0.05467885856142094,22.4890625748931,-16.853819951492465,3.33050029134096
3.144925631476437,33.673931096242114,-18.408170160308774,28.939721004792844
9.393354145348265,38.60459528632897,-16.030631682554397,49.152128735829486
16.27156808449253,33.82924284798197,-9.373547829435452,56.38707751953055
20.36611375046031,21.616800772974496,-1.0008587814101775,49.523341236129056
19.577234511011966,8.913175396781462,4.988910991287209,34.827914379799324
14.556049972169708,2.9092764529473896,5.283040201081342,20.80410170627149
8.198962120013332,6.463552069386181,-0.9732586204162103,11.19257871677668
3.511051877028873,16.07503816470194,-11.479139551801127,2.7042677387788525
1.6569692881795206,23.623363725778262,-21.212130999622264,-10.45452714870166
1.7361895125436615,21.53677969580821,-24.75587415809122,-29.913095183898623
2.0519196827025965,8.529589999692558,-19.973045789500304,-50.592613325050344
1.4755751284451346,-8.722914461087115,-10.044045025254968,-64.09432343285098
-0.04418934930747857,-20.133281233741513,-1.412322178541757,-64.70910699689121
-1.7692079977914954,-19.527959897189238,0.896634931667633,-53.38987306363777
-2.8055563490133495,-8.6758487922309,-3.4559326356567692,-37.090576826729254
-2.714116713898691,4.703113074227604,-10.533461175753331,-24.10838479450908
-1.7608737857879695,12.537344284166695,-15.177280222533927,-18.841502101832315
-0.6407094284535165,11.377075482340075,-14.398972633798806,-19.93696985961328
0.015514693700465087,3.9333002043248446,-9.233462446559313,-22.93409000845729
-0.11541681697890996,-3.463157225940566,-3.795587355431811,-24.36441451789053
-1.0200430775893663,-5.863935535897545,-1.7624582375887625,-23.378757761087403
-2.2065795149582845,-3.544227080187073,-2.9699797177755114,-20.430900744309596
-2.6581825170478623,-1.473620983891607,-3.438242122742233,-15.834337302748281
-1.4379874608359422,-4.806352635514808,0.9132600210273824,-10.029996026142273
1.3324440499908508,-14.269219102500651,10.308959431494259,-4.261346916176127
4.310767461167603,-25.095682352168723,20.44646020946489,0.14800578616925297
6.0728116936017145,-29.96687787065422,25.38435638300089,3.3221745844761283
6.416346213882223,-23.752622686302438,21.576083738517642,7.247425050982608
6.448081575410163,-7.188193901492974,10.454018116815329,14.536879471127184
7.5361599304437465,12.848150738594125,-1.9868800007773117,26.596825594574447
10.285381500181368,27.205769744162534,-8.762283570008062,42.220591479977095
14.179199617383045,30.235265187808526,-6.598597804841767,57.2404424260055
17.69491547342935,22.948315905983353,1.9780714070120662,65.98376018167588
18.786185592806454,10.875042190908813,11.269331760765613,64.52463374637733
15.890622622942045,-0.9670755217338762,17.327239463673507,53.7204690738744
9.056486696529122,-10.896052506188967,20.363768406642922,39.30568850755018
0.19189325752123707,-19.20840778533205,22.829349906291817,28.58164914066251
-7.943204474780945,-25.577138543755613,26.083434301632348,26.167954749078117
-13.18210630910386,-28.629710719675813,29.22929370482117,31.639264961216117
-14.79885379404383,-27.36492922537247,30.247914262942995,40.02274181707305
-13.510764809016397,-21.84628843991435,27.30596912960971,44.64487432918304
-10.896177782908085,-12.598969617686548,19.44462638473886,41.18670568808918
-8.426003781154078,-0.46302735982678095,7.442333750625945,30.84256370292372
-6.510968674389978,12.376557891363959,-5.333378078472093,19.970839632156036
-4.379984321227264,21.81914607866729,-13.63367625139351,15.698029666045459
-1.131390142161482,23.328458166085074,-13.063360551011476,20.603340026356594
2.9933121631635085,14.888000777987095,-3.106221488785807,30.78879795984876
6.457635251229498,-0.7535516990811304,11.82867744568132,38.6741865403324
7.4754215811788765,-16.697763314717335,24.36702687674924,37.96977392806786
5.053113382091982,-25.88567592985777,28.40433080892904,27.198829717407307
-0.7735085357917286,-25.965056599383356,23.02564474483867,9.865804010964697
-9.092186255451535,-20.60239738914843,12.773752952744497,-8.335239121867522
-18.113507902303315,-15.41294812949133,3.440577873873666,-23.246635653943233
-25.35433274784553,-12.348767959329708,-2.9370518802436316,-34.3008520419302
-28.518877920043824,-8.359504086832652,-8.981189602027072,-43.48999278112697
-26.667388546666256,0.5613048931063502,-18.181129525226076,-52.52388921403468
-20.69626500617642,14.481160776890345,-30.628125076312838,-61.07970055308996
-12.778666644641364,28.37866842908179,-42.23117964825767,-67.5539794974053
-5.289670953359676,35.099663636317125,-47.38299360521362,-70.86400577490282
0.1172142968882827,29.860369055505522,-42.580412455996225,-71.17317384702775
2.928907181237855,13.697206945257754,-28.93021277183996,-69.29526726838647
3.5823227313911836,-6.131342231724736,-12.293949430734305,-65.95094490218253
2.876105421346496,-19.852689937799585,-0.3672249751760383,-61.48561942547446
1.544442038049668,-21.362446367299423,2.1427883193853616,-55.863609697732905
0.326834199119676,-12.369777252098585,-3.2885975907210594,-48.99640725288885
0.12050187051113592,-0.8838822085872128,-10.365975764010976,-41.44900887877623
1.6363617221610753,4.780353367426438,-12.80444257125712,-34.631701803596606
4.796212693426755,1.58696890674472,-8.504929477786057,-29.61630147737849
8.674699498203788,-6.8665291590160145,-0.22425820944544828,-25.61292233590311
12.125167987134342,-13.313149070386798,6.771042516373152,-20.269989380013826
14.312714380758436,-11.7722537722219,8.054688391434283,-12.052756422234955
14.645657816175571,-1.6684342482333456,2.7483260982727873,-2.241032766052956
12.603820623166627,11.517399641695421,-5.813305033375994,5.725562790934957
8.10753965529668,20.116063240108655,-12.340182353066005,9.031737499141938
2.159277641183805,20.116363119617752,-13.444326828159937,7.987103798229322
-3.0887631583615227,13.951182153582751,-9.730433194539295,6.397227587417714
-5.205188182145495,7.668786780938006,-4.241807493352726,9.476007217372672
-2.8669296442835273,5.583530905974007,0.6153559906074821,20.27557249144914
3.0328438916050544,7.719326673721672,4.182045545736408,36.86453113359291
9.412289306570564,11.537535955101479,6.309979960998419,52.790464758140786
12.636207744648633,14.779051804115797,6.42789817179896,61.131054388800244
10.987102598906674,16.331865311058703,4.405551039359348,59.006275714649846
5.937419498305121,15.38552156766091,1.7222306949335737,48.79309777360435
0.8107506899113127,10.801144711452629,1.110312782392267,35.62620256919245
-2.0122297220901837,1.6609384203823512,4.866286300079429,24.151526676560362
-2.5268416828336835,-11.226991080012521,13.09349002385324,17.139356978486198
-1.8896288373224244,-23.869021847756333,22.801518603472772,15.795331602862552
-0.31293522548677305,-29.567258649522792,28.697343350771614,20.206945528866623
3.274182326020303,-22.613156480301672,26.0966869145187,29.15204252241362
9.331137576334052,-3.182672061717113,14.379456436980114,39.5531896741019
15.727931935207765,21.04915615624456,-2.0471421217190175,46.338726196088636
18.122377551891308,38.70816631530638,-16.336294259276528,43.78759380145198
12.982143670465202,41.124068055553856,-22.95177637722775,28.840030192453288
0.9420252746395229,26.78345034319126,-19.79370203604382,4.553246080596669
-12.613604962751268,1.7940581770988,-8.476032567815343,-19.86783926600445
-20.83113433291436,-23.038722935501156,6.2267551203265255,-33.931961564224814
-20.165086144883222,-37.26188716239278,17.964204758236104,-32.36808288578412
-12.695927328309457,-36.014616520555656,21.82389791767405,-18.12057163194258
-4.212372915012583,-22.326099894697,17.058192798799023,0.07141549244154431
-0.07045914339737164,-4.507708555600026,7.021201107236117,12.990954491139968
-2.2269935886575754,9.331011891891627,-3.5115855580876367,15.571236177127762
-8.877790494673219,15.273080879360899,-10.899438160996324,8.929758000359723
-15.777691839322262,13.951650498048956,-13.388210453966582,-0.7036666529410368
-18.1128804165661,8.617140118503634,-10.876712073696549,-5.849268024895622
-12.719413884320227,2.834440012835929,-4.674716872656878,-2.5211554882202964
-0.25949914543041536,-1.4887946393291565,3.0856471068960727,7.281178913389922
14.108880307147029,-5.023291977220301,10.478773580758233,17.04897688690882
22.89255427219923,-9.813015015390159,16.224830785393106,19.845373619664716
20.60130865803347,-16.609047620060817,19.239047142185566,12.24199687111905
7.601462080494002,-23.517451270508396,18.644343529690097,-3.6397138894610377
-9.33291024737106,-27.505604699246256,14.886716005420444,-20.689867174777707
-20.69952632992436,-26.814991291878936,10.190531601162059,-30.323118150135855
-20.274849469306158,-21.556981053425012,6.769563782574906,-27.814702233182807
-9.479386745289139,-12.751144812705418,4.487890702024041,-15.946937254015397
3.3287794251239338,-2.0420264780088035,1.1096966431587705,-3.604851739696211
8.552340012370344,7.609672465855798,-4.800432120546664,0.07700504258989242
2.006012001590903,12.270147730073363,-11.657950089041385,-8.41904375952786
-12.341143452181091,9.158160452955318,-15.664926562377687,-25.15659053834996
-25.28896170657696,-1.357787304460277,-13.527928396465542,-41.49887864146345
-28.600463830361168,-15.616630377734586,-4.819495114967329,-49.30838032283732
-20.158135976179505,-27.946610790271645,7.049615287004003,-45.69470662671573
-4.872311953594985,-32.55479956164433,15.780889067787683,-34.5673759714254
9.001036665264701,-26.126553186390534,15.551996107642632,-23.6373392365489
15.501444738301648,-10.284508451514434,5.252738604184776,-18.757697613420344
14.54476453255338,8.610293370853585,-10.151964767315782,-20.094912543613408
10.898217297197029,23.162670242880335,-22.95255481721467,-23.117943338126924
9.63814899996531,29.129991477544962,-27.779787094329485,-22.90187148094697
11.982688266824669,26.639525369781648,-24.112487438421194,-17.753048375426417
14.781945318168539,18.696125040136142,-15.335296910290397,-9.826413330775656
13.633828769738853,9.382084928805265,-6.381557158297235,-3.2393870564904303
6.7728761492756675,2.314759097965301,-1.215808909216099,-1.225577699654864
-3.2661983977637497,-1.2427284129209344,-0.48687757467034554,-3.796899541559924
-11.231207108110683,-3.1258179677111984,-1.0857831309585375,-7.466862298830416
-12.708676586515827,-5.7656989507042695,0.7198058014002172,-7.741311420763657
-7.108068873173908,-8.396142944259488,4.934285251409274,-2.6475672694018297
2.0402841709669306,-6.973977334585302,7.3563846710797485,5.867831577798192
9.57354441320453,1.0741846980866108,4.190171153980867,13.88131525557173
11.96409302508886,12.59410578799393,-3.281420581221602,18.707762036363242
9.056599588259845,20.303487977523268,-9.252866370012045,20.641873715456008
3.5482865679298605,19.010281365563998,-8.51397361628432,22.44401513056522
-0.9154800226055072,10.266483194145719,-0.9306818532213407,27.307840919575522
-1.8390967070402733,1.21755438994876,8.468126091811781,36.2261441875896
0.7187527517711276,-1.0602772987447966,13.287595019873045,46.20219018468222
4.222480446036936,4.980952225367198,10.375579109441412,51.330313831730514
5.515254178138896,14.286331746526862,2.038066148629803,46.94785039968157
3.3199349770968594,19.41464438698946,-5.88935792355993,33.574484635671865
-0.7448242883914803,16.803959923459395,-8.877496938248653,16.79585501163259
-3.619942597943176,9.684842790738806,-7.282140469120598,3.2336735719645637
-3.3246549867667854,4.892336671170672,-5.246051390697776,-3.454095116282387
-0.25597962527124246,6.704795791233399,-6.275266104005131,-3.543813067348693
3.484468421165427,13.63099787419419,-10.229925350299707,0.17438465023712127
5.659305711348344,20.377253937772487,-14.181721560102819,4.183892892349031
5.0942061320862475,21.878904331418592,-15.03572367351101,5.716364280394245
2.1117701639803386,15.794494207823833,-11.10522365434041,4.000295813818143
-1.7307728826334288,3.1998350019371262,-2.598092598511789,0.6271187686343721
-4.525364306542995,-11.510259244399942,8.02542077442916,-1.6190429884376398
-5.165147585328239,-22.161958099924615,16.583837287779296,-0.7242448516009073
-4.039785354206275,-24.374055227804085,19.54551904964373,3.239265718826214
-2.7759204967078195,-18.83340829833376,16.631422464209926,8.043114771422202
-3.184011365684265,-10.934887349196353,10.959057057987819,10.358285147559705
-5.972567029366115,-6.800480417365326,6.630937861438573,7.8219384655192625
-9.903294718284934,-9.191305938834851,6.2229410903897175,1.274681530417862
-12.149003538990268,-16.286839491249104,9.844699341018124,-4.963999305604406
-10.172726198556743,-23.458998909774493,15.482245021370856,-6.077921165328544
-4.0326262282838,-26.532184838258242,20.145977934329668,-0.8907266083862309
3.082946403964697,-24.625531487008,21.707581548771596,6.890560842380366
7.145869468998834,-20.52770949604154,20.340595295123123,11.769837223418225
6.617440315227899,-17.913372378962958,17.98217246813866,10.941118970617335
3.643597442630673,-17.768594388279766,16.149619692207292,6.055736228977292
1.896430264542186,-17.564260087570105,14.412275597335023,1.0661976109954812
3.1322780581839296,-13.735763085657375,10.83076450109693,-1.6676383374119699
5.684667256085591,-4.584390377728057,3.4189536228900637,-3.695266645629243
6.164429407892707,8.73834115698837,-8.483569715229628,-9.129640248669357
2.730575171573339,22.72437089385725,-23.00269981620676,-20.363910327616207
-3.005770398641672,32.5638860995778,-35.36010518474216,-34.561284140655104
-7.198317095770206,34.16649624494508,-39.95719699098299,-44.85147415370313
-7.160152589484905,26.855283332066758,-34.481961830182925,-45.97803116960443
-3.9060599881621787,14.330355186841375,-22.321086618135528,-39.15790764205333
-1.3678188873073873,2.297804901599666,-10.336006163636862,-31.17026670172815
-2.9094606967003886,-5.20851303615046,-3.9265275162337514,-28.558842343136558
-8.449807880891283,-7.465267538678429,-3.987715216982819,-32.57812737380521
-14.764362168177437,-6.113969978898523,-7.629301898507171,-38.93557891811098
-18.184479276604197,-3.6005980078669313,-10.733861419453113,-41.3538872548129
-16.845954860592727,-2.0363458104087235,-10.231880221846657,-35.551396079024045
-10.939464491650863,-2.0122632988280533,-5.6710755731307945,-21.482570706610282
-1.8848684879217164,-1.9527562405643244,0.3976483190737277,-3.3010166769677958
8.125250679230845,0.24479501105676182,4.3727371119329055,12.866354378487591
16.186362697342126,3.8347362692725264,5.161756813581775,22.237581923241496
19.296726859802845,4.007733525780128,5.808186245543418,23.55347777634168
15.80121736986341,-4.447079308717564,10.711803304738128,18.744445675434154
6.726845325508238,-21.386138112641248,20.797564414940048,11.161819338580656
-4.208816374154495,-39.38320407142535,31.642709104665357,4.261097230782594
-12.290210534825654,-48.175998853055226,36.57959477057886,0.9568122361741033
-14.318100371128745,-41.9315641817461,31.848644139822873,2.7495004427716396
-10.264468172367694,-23.344931197695423,19.379621934053546,8.88562046259878
