TP9,AF7,AF8,TP10
2.2913760785711568,1.30145244187966,0.2943578693943508,8.462487026724308
21.600324402014103,45.92913187007604,7.644900954897877,-13.922647246056389
33.478744550756886,62.8764882706666,10.653623285611841,-28.275220228749177
35.68828671867893,40.640445557329734,7.556540289204694,-31.148115110790943
32.131660683776424,-11.409965927842121,-0.11093720039484234,-24.782002159132176
29.123918287685512,-72.07496320225957,-8.99408068014747,-14.303773511652631
30.453757511107334,-122.33327824569955,-16.17212389190077,-4.217785784364977
35.188781030583414,-152.33798410878538,-20.27046793442116,2.8391434031428084
39.33728752880411,-158.1877797994473,-20.91652223804444,5.424074839102568
39.37036460235898,-136.36756236361788,-17.771573940828958,3.1318027388293483
34.7450338434537,-84.49608874311062,-10.518818003518149,-2.42726381132799
27.88842091051971,-7.925931950669811,0.1852777465286479,-7.636808513273886
22.046643215939973,75.35204965716649,11.90290953896659,-9.255951174944418
18.77381547784631,137.51496678316207,20.700468789711344,-7.191168220694026
17.079315283468343,151.49169436198036,22.632459806475843,-4.553154280478487
14.96305433334142,104.63370240698163,15.782821507284927,-4.715437149448321
11.765397784888236,8.446129642506524,1.7774652354461442,-8.226031117873207
8.711338732009766,-102.1849294037256,-14.301286357275286,-12.288701053492115
7.038244464877483,-182.44301143532672,-25.94049023072029,-12.92969370947809
6.145791529762056,-198.7459620624452,-28.33223075330366,-7.924318836951776
4.198241809958109,-146.6757250562859,-20.927123090111586,1.6074960786305468
0.3209238878445039,-53.92922300017314,-7.755143945169816,11.929554397585536
-4.496600476861654,36.21246390379884,4.997704322836482,19.142076399421605
-8.733461805093608,91.41067878347447,12.746244656273847,21.476052108245746
-11.951641633657871,106.82509875216572,14.813925745054595,19.768056096501677
-14.756923510747242,98.16468872947242,13.434056866744653,16.276735912013724
-17.408795321925382,79.37149459845595,10.601873706649926,13.398287704514289
-18.729151046128223,48.377070938471526,6.074975519611782,13.076879849905996
-16.55154856049673,-4.655892749418779,-1.4608011811229367,16.16328152371247
-9.775844629158419,-76.52321292350133,-11.491356605638513,21.29375880517484
-0.5805677285997534,-140.92475685375882,-20.33120953275896,24.637251229836778
5.704140140971893,-161.6202746090913,-23.01281041983597,21.91155567359951
4.133743136975751,-118.39937033119404,-16.85974850792181,11.516223688409388
-5.5712342637426,-23.27746068026936,-3.6164733769052906,-4.195758152191978
-18.392249731437197,86.61370534078034,11.60621478443968,-20.772820536377466
-27.963927623493365,172.29694401099255,23.495914182522554,-34.661698772849654
-31.07055661349941,212.58237182530718,29.153066796930624,-44.58821880723811
-28.452288106210204,206.51423097079402,28.40489524333892,-50.77449638349142
-22.365708753922874,162.3686298804752,22.336298100641027,-53.5714557552981
-14.632371842275512,87.89738397533323,11.977258328093257,-53.028278456999885
-7.005038276761023,-7.972538962672935,-1.469636349795502,-49.51558278677055
-1.972675065619048,-105.8829477176824,-15.334104716769204,-44.38289692781704
-1.7378934273985966,-173.27972522345758,-25.031478619901264,-39.51629926792018
-6.04440428341567,-177.95085962771896,-25.9097686355287,-35.78173669595832
-11.59158080303008,-110.89986135674779,-16.516624182250897,-32.00503148646312
-14.390504672374762,1.7429961864305081,-0.42659805706608406,-26.261419448422597
-13.271358381740942,111.71319569114122,15.464217492073608,-18.699626214173804
-11.154059917291006,178.0809997465845,25.122581314247462,-12.55534124652043
-12.298068747981729,189.09607171223038,26.65447893330261,-11.328038898418825
-17.505156295239573,159.69812905483397,22.17353906989206,-14.604075072607845
-21.9645596667429,110.61820510504107,14.893102766333397,-17.207404478504653
-18.850594181827322,50.88226380625899,6.436126357246888,-13.103173249594446
-6.230786151235388,-19.84686998018629,-3.1545578109560912,-0.47081666052519017
9.411181197118493,-94.3217559842608,-13.142217801617466,16.709849243090108
17.343870357139014,-148.1707878963353,-20.524864282492096,31.740167009577668
11.2579531141682,-152.7409876723026,-21.47426395342445,40.20487268780238
-5.462849988984374,-99.91030684426342,-14.660002130166216,42.99947654095407
-22.48886646593326,-13.024696542439987,-2.9550380081150274,45.14159118584807
-30.403870799315897,68.5250687664727,8.413371133490463,51.23286440183643
-26.839333275924805,116.50095767141467,15.490546443749174,61.247785670346325
-16.553591948199692,127.8516378772806,17.612004301310172,70.4561932734458
-6.412270944754342,115.795565478558,16.356622054628193,73.73263251433174
0.23655256693385118,89.994794509572,12.95718548982071,70.18422959002373
5.3003979791462985,45.732379899012756,6.824048334060998,63.605366267829105
12.608414577694248,-27.954191197185104,-3.4408652372331674,58.49257648181899
22.888257865669484,-129.1483568515278,-17.527129151713023,55.69400129171998
32.22339619702952,-232.06935328632773,-31.906749079678004,51.80917762154792
35.68363594471676,-297.16088110622394,-41.115596780409454,42.75798593136128
32.35287912775833,-295.83622911850523,-41.07971271149036,28.36095166477147
26.669013024225446,-229.50644357415757,-31.79272011918688,13.987094736480001
25.094587365651286,-127.94156457735362,-17.237259783819976,7.462308536990307
31.495623736555714,-30.427524306510332,-2.8891452112531377,13.140661721104427
44.79764099544396,34.04489558858943,7.025666909078296,27.832081338347468
59.82596482462326,54.66514653282747,10.706355631340012,42.36882531173909
70.19959764903795,35.106731164811336,8.380897571070793,47.90173870467117
71.55758856938368,-12.563495321615736,1.5807553655178215,41.68544279529091
63.42448586332472,-70.44462695790213,-7.139246163658718,27.65600690723874
48.824462763641215,-116.89742377422684,-14.520080584603283,12.013164274361571
32.357455778117455,-133.23575976814553,-17.652546787078652,-1.8410821324680724
18.26428233444338,-112.36928637270941,-15.313645694239874,-14.986136635035242
9.098791150357183,-60.99044604602783,-8.345210963571315,-30.68103362478935
4.713664571375093,7.350734504093111,1.2944362085171248,-50.37480118479487
1.977592686789313,80.84592111671162,11.755032195491221,-71.12255869902302
-3.5836754162156423,151.53653413479955,21.67619799528889,-86.53923265001356
-14.490299254697081,211.59580852433535,29.80958231803439,-91.07597291189838
-29.02024728863885,250.64761630681562,34.74246253392537,-84.58949949001457
-42.34736672440427,258.39412583175744,35.222369687962036,-73.32499323639165
-50.24247229815359,230.98331067993723,30.89748327826179,-66.11053331109751
-52.00454075502015,176.32604572094033,22.94185956820708,-68.60462924387717
-50.42420465513067,113.48361491828196,13.968159652965545,-79.91230716808789
-49.44038040868525,64.41678641206916,6.950839999577222,-93.68863732471209
-51.43507992096635,42.52523569281877,3.7049913647735058,-102.48596838373126
-55.635593741231666,46.26622522931332,4.044183710183039,-102.2676623746793
-58.56808727259779,62.50540445468228,6.241986705237882,-94.32225529499584
-56.75595882971633,76.4272031209945,8.330801821740625,-83.60293836253975
-49.86693677414554,80.53741297331159,9.248100887248514,-74.84587063279841
-41.181844806602484,76.86857007170823,9.131047872753692,-69.32775129151153
-34.52929575984517,71.38391320637338,8.656046159489227,-64.51688815820006
-30.898948128956413,65.34215506628881,7.95645118903446,-56.46479511344757
-28.321834757658543,51.51221639070877,6.083728981348106,-42.71988446339384
-24.42679215668698,19.347425501485557,1.6315499083293705,-23.628576295372007
-18.218992621227763,-35.13066785945168,-5.925276882056824,-1.645112199449636
-9.840471369143858,-102.9684628059958,-15.303179128930134,20.21231211667088
-0.2132433285431447,-163.7968510635416,-23.611554983439884,39.46832281135764
8.465067734876984,-194.18498314792888,-27.57960673005528,54.455025470111394
13.125033258195515,-179.40862123175873,-25.232199232992734,64.34318104304882
12.198267773036005,-123.13307598764914,-17.171932174774582,69.78224174806044
7.773777541466024,-47.89585719533152,-6.546443705290334,73.94673430275434
4.765797941833513,15.87666614100868,2.494069738393344,82.31958383923146
7.454382365141737,44.62947630827397,6.759126522978377,99.77137662156514
16.38544258319298,29.284724595338,4.967168796568884,126.22343209917655
27.97755557479236,-26.70890226655483,-2.5536380552378626,154.762617997485
36.86716774535915,-111.65504120220308,-14.371024266681939,174.86820624197838
39.30628892032718,-205.93006698808395,-27.834813890028585,178.80587027942707
35.344177159657555,-281.1463456965913,-38.85378114680973,166.08775339823276
28.24546921370613,-306.10986055758343,-42.78122011363655,142.71779887211272
21.72559300200592,-261.5360486873705,-36.66479948352633,116.56030173889879
17.530754957700083,-153.97406378427095,-21.366039292879087,92.7405187211443
15.337000218311362,-15.743308067060601,-1.5555524180925848,71.86874519552337
14.310243618186538,111.51544211752588,16.729964911994923,51.34865128982056
14.193826265143892,196.92670116567535,29.031873874790918,28.33349752067961
15.1070786229337,228.793120374749,33.6711506904892,2.3201521461648427
17.08436394699195,209.04537908086732,30.926934179585423,-24.2126450984056
20.147452101603275,144.96607438207192,21.848266903327517,-47.26575552934048
24.29423049411288,48.874590092039725,8.208682626529072,-63.526503757649074
28.809642687910227,-56.037248741402635,-6.685657253417141,-71.8592685770056
31.71145496091302,-135.50337963916138,-17.993153961849885,-73.64251519524906
30.458687152880394,-157.55391547598674,-21.229051562591007,-72.11187416172311
23.574930194719535,-112.3694770327513,-15.048357131476486,-70.80794340652585
11.745551525394111,-20.788424816000717,-2.41947894017025,-71.66566143515006
-2.3388339186567406,78.91027156277141,11.271830281022448,-74.08481407673742
-14.991971374645576,155.6457594446674,21.723519098895977,-75.8473009022283
-22.926937564705007,199.50720114702378,27.663802495049154,-74.94091813835311
-24.751693242349464,214.2986180052555,29.7065350461358,-70.53136583802736
-21.74890583368882,200.30870026451254,27.832367570382125,-62.68275263408284
-17.022135434604042,148.12657444429976,20.53848418221541,-51.951762272346
-13.455027509115052,51.53447886595269,6.792583969755476,-39.54263191136872
-12.182241140172044,-73.3183364970048,-11.132770826227734,-27.351377680726866
-12.59303791440577,-184.05406658496014,-27.104291755844237,-17.28542516487246
-13.369052920357394,-233.2185493395355,-34.22407450093708,-10.511302820970732
-13.709469435839495,-200.56422821080906,-29.537626029359423,-7.524081748638133
-14.258168191986734,-108.63825457633139,-16.3230038785922,-8.678215315961987
-16.958078366571257,-5.858670057202024,-1.6463248582027974,-14.072501711901017
-23.119146871373026,68.91555281872965,8.832922034524044,-22.624846246611877
-30.86596513747757,108.39281168821203,14.152934496445381,-31.429713284665528
-34.881734831133826,127.70754890296458,16.745255837664356,-36.40821974325772
-29.771591347502852,138.29963790436886,18.5131522374331,-34.14999832432992
-14.535457050739563,134.2728921065079,18.654735306944023,-23.976769725456396
5.77972484916543,103.92555967685314,15.24548178652698,-9.001894918325107
22.59558964172144,50.22327896067738,8.30632589241787,4.8473275252967225
28.571094993566124,-5.033387238267806,0.6297960399755566,11.891093786907646
21.731098079884752,-38.73215361741518,-4.548553963636311,10.164963823241322
6.766420750836074,-45.78116690732359,-6.273162005617073,2.75247733018541
-7.499608119426334,-38.86486470622385,-5.953221527858742,-4.138137114033512
-13.43139670564687,-30.427631605010912,-5.019634501692356,-4.945264038238942
-9.212881924109551,-18.585512230383188,-3.1151753292785807,2.1211038872025325
0.782781856177849,7.083478963954744,1.0541516549526495,14.189650821390332
9.975427640464414,46.56245552132348,7.174642742308412,25.322085385043888
14.127053359544718,78.13157974649013,11.917861343786864,29.864817953407805
12.71438135680286,69.12054262526986,10.553794410791387,25.79313730468019
7.1583390532293185,3.2529601255179936,0.8049882893724958,15.784301679515622
-1.1124886913504848,-97.81503116394384,-14.14271975301192,5.218663059877972
-10.743258766537547,-180.9347189683771,-26.570882532597334,-1.0654550026211054
-19.526757218093376,-196.38632421673796,-29.213870042886178,-0.6561635734704069
-24.409485085887376,-134.62314076028468,-20.551559267274204,6.481736099313017
-23.041114756475995,-33.12955054825374,-5.870867219003605,18.553805711231508
-15.752776896668147,52.54673567078338,6.81254066665456,32.11065630534296
-6.1488022710378365,87.75897968937143,12.338146233947613,42.71387103248295
0.9243676950620788,75.77086987587775,10.946553768098104,46.92649868411339
3.204985207999246,43.693002294638134,6.435160939931836,44.629324179949414
3.295105616103652,15.19650388447225,2.3361701861110626,39.559498998530124
6.289729526435512,-5.098763561427158,-0.44415218806672496,37.025516706248744
14.117060283600662,-25.895487927952793,-3.068356515760051,39.98827908267533
22.284756899705183,-53.03401604908226,-6.590604018823292,46.31706615126528
23.04945768817054,-80.316032172263,-10.484588970725015,49.728501328754575
12.411022631230827,-93.69694966310831,-12.916119704445622,44.35748367688993
-5.646122298485102,-81.23843157373969,-11.976215259563562,29.59251624661372
-21.35145482041231,-39.531357639358234,-6.710878564104977,10.898767987146938
-25.681544986514176,24.780638165456896,2.350023490279497,-4.399614238696622
-16.271865461043376,95.64374541318566,13.005709022476246,-12.675730354254414
1.1059915274747212,150.83972613262472,21.78224606101202,-15.965694668647382
16.342979940694285,169.92245634750614,25.255502135587523,-19.087926532510537
21.645625122791316,144.39587935140486,21.832168992141234,-25.100489060790306
16.469691366352343,83.245171628613,12.780314578258626,-32.97183085670544
7.192956706181028,9.095383908836864,1.6607905351213912,-38.61257770271105
2.101568132929835,-52.9705682263541,-7.520881994031479,-37.84513246938236
5.775482024083638,-86.92869466104743,-12.239423095863014,-29.26687750670956
16.64817990265536,-90.97786844104216,-12.309255450226697,-15.400629234831046
28.50703135096134,-74.35276530145683,-9.354478326390582,-1.3769164020403508
34.286237034120134,-49.324580908172244,-5.477172832924242,8.031728548862084
29.885957238486665,-24.386941043572453,-2.0950296141720557,10.770622986438024
16.100122381786385,-2.544361196155394,0.3967489260380505,7.589939974185991
-2.230279807440388,15.718076732714097,2.1578334362605545,0.5444105873439048
-18.952833034156214,28.35852016309632,3.1859380793948717,-8.134900882895653
-29.17077197130506,30.37111612898597,2.9921751905359537,-16.11026328625741
-30.414654498158868,16.19840321901624,0.892857123592758,-20.970659753664897
-22.931886343716243,-16.255682445590427,-3.42606605509279,-21.034759336277574
-9.866766577447564,-63.01475701587286,-9.54124193478075,-16.38509743808348
3.1902505320235823,-113.57618282162547,-16.205058582539,-9.20050026720122
10.266225800498418,-152.07553812784954,-21.41547941632141,-3.041476465473811
8.139236408405823,-161.09047650484843,-22.815426876887635,-1.1875630233483376
-1.6388642658448016,-129.11194344613867,-18.673250298134263,-4.607160782199269
-13.530493274489544,-58.29288177492239,-9.036455634366511,-11.043599115782637
-21.13227316394738,33.93549318613629,3.887619323028961,-16.582208214232274
-20.571362033623014,121.3985073681387,16.512400333793067,-18.82118411837717
-12.336353400040567,178.9437448726384,25.19209370123272,-18.67807914775213
-0.830476641887215,190.01946120152735,27.334141045433046,-19.01211360733001
8.07158986612401,151.53143189487201,22.21414954603297,-21.590999283655645
10.277585451211227,76.97893562314626,11.581784976755364,-25.374255667620318
5.635469484580413,-4.938013896332307,-0.4371341594577953,-27.256080096225915
-2.411212611968323,-60.57300179691346,-8.833503991604664,-24.111343785475185
-9.229758103948738,-68.57850161357005,-10.31275122580727,-14.620416046677423
-11.677804706846624,-33.33791825184926,-5.356615499141867,-0.11734968613614372
-9.674882384386482,17.605517368900607,2.0724010786783658,15.855719457555987
-6.20593764469582,53.42405419772959,7.393189652749961,29.215798018971682
-5.542334607884073,62.45580193163926,8.723715347771481,37.29747419556408
-10.130816475011788,57.06384548875409,7.728491103731278,39.802351246319695
-18.27143598214046,55.605922148882215,7.13203052597351,38.400892257845506
-25.005208952824205,59.75294159506822,7.40999423386115,35.800009085538356
-25.860571494994762,51.66063734734335,6.204001143276379,34.88725787337643
-20.096178503366804,14.585660718070915,1.137210562468558,37.64559923971099
-10.697667772578452,-45.39285060491178,-7.056564387464346,43.75644770462631
-1.8037565573986107,-100.11750359298361,-14.51762262407265,50.03685070821365
3.764069840485601,-121.43740627646314,-17.3242876049027,51.90939293508093
5.27137303640146,-101.48281092127563,-14.377223596174552,46.259668672717275
3.5130434366928514,-52.74449511093532,-7.43783842168681,33.45511346869874
0.062131428831991485,6.8367341321738575,0.9837272328236695,16.956769881697277
-2.9474556363295363,64.82113692301164,9.196146108889295,0.9721046941311023
-2.6922298708058054,112.2948292628828,16.049119285436596,-12.104762980777144
3.7668034704519346,137.629025212385,20.00746468231982,-22.74127901265507
17.478420623597493,127.59378219884704,19.215938707478212,-33.00154886208535
35.36589894181889,76.06202839845498,12.646078854114297,-43.874711725677635
50.42679269599579,-7.794530901422595,1.285818130200596,-53.71285727642366
55.49183146078353,-97.96304488587386,-11.459437158825967,-59.62044008347989
48.11428960091042,-158.90295606958747,-20.587191598397762,-60.38190369999536
32.555554744586296,-161.90194043962697,-21.759106521131013,-57.387131234680375
17.11653922207059,-104.20805761884746,-14.184000677037146,-52.34129138883033
8.83224809702962,-15.741309244515884,-1.8371996279439813,-44.791187831790644
9.270903645185141,57.84224957718874,8.779392212083533,-32.958510680486924
14.001779755885314,85.93507744352335,13.04681324014306,-17.164432355937958
15.831822847279408,71.16652593837328,11.002992312508512,-1.655154302857884
9.754523477244305,38.38428128570307,5.9902971170631565,7.772063702945045
-3.5901045643614653,6.376911562237287,0.7459574126017045,8.384429171599681
-18.538391566525842,-28.649006192176472,-5.007964286021773,3.033133991465521
-28.866922098924125,-81.52203414528027,-13.113069954302382,-1.8615613106572448
-32.47815256126124,-151.73811523407966,-23.398267120057408,-1.2600068265702014
-32.22952745641595,-211.55050368389237,-32.00286689610437,4.854077899257313
-32.43927513195989,-223.10853494850159,-33.679318467066636,12.340116823222882
-34.72739417941727,-168.83764427094323,-25.9723680378883,17.328625773854604
-37.05184090873056,-65.97762433885178,-11.268077036511343,19.730522097629486
-36.21486543787649,46.31097186180948,4.944410423948315,22.338727498669364
-30.92358583418309,132.1586920389637,17.559713221190453,26.902632184397717
-22.57873674453374,174.41694694061343,24.04166221273223,31.882193392371153
-13.442480517076142,172.974161635766,24.267375550932226,34.37974620386691
-4.249811922978633,134.92773325889695,19.22436014912447,33.6798437672163
6.136468833357531,69.27341784424502,10.26180257031767,32.09351099735806
18.407880643118357,-9.063692410945874,-0.4383367300931814,32.24654470334666
30.263940107358426,-73.35159976183827,-9.135026705437342,33.99936412235481
36.87603378606675,-91.11810874358295,-11.379873227730357,34.183139916060846
34.587059702996,-45.52855944032466,-4.92103690513283,29.149932877842172
24.334315140171444,45.51174950313526,7.707316821948601,17.767890003034616
11.304116790446825,135.75407505376398,20.08964039754728,2.622672161694814
1.1611254046325974,182.73511854523008,26.37780405525823,-11.372164517503698
-3.586049963517912,177.77587516000324,25.439968444203185,-20.061340113531944
-4.155431059190622,146.26586700457324,20.874987920062352,-22.519615142973894
-3.2353415238404923,119.67487905282194,17.088312596503293,-20.80720142129193
-2.4304716411524643,106.85706710057961,15.279566212286632,-17.39235652027373
-1.618947671850494,90.25247324288578,12.925485962308198,-13.004267058283617
-0.27431329087633677,47.682819752572776,6.856505408154899,-6.935664237811851
1.098283373757896,-22.55978091242404,-3.197444374504878,1.1315981981940497
1.132828762522816,-96.64291148204731,-13.868321576361645,9.996550678852024
-0.9358154615764878,-143.43685130565956,-20.70818981862987,17.220898649352705
-4.4660056872930385,-148.1665559872793,-21.557818253596658,20.047198594225982
-8.365638697699346,-120.69437993500416,-17.785363165204195,16.484620386951946
-12.572369589634784,-83.5721744253763,-12.636083848552966,6.52568118611363
-18.003126965040206,-52.97532526873092,-8.483943058733415,-7.262407698549076
-24.770432852469863,-30.002151492007858,-5.493449561918879,-20.71978517180379
-30.68416641182022,-8.696236928070483,-2.703491333863325,-30.088583641061312
-31.939021108032914,9.062484338055532,-0.20451076387896855,-33.3237604266586
-25.687024724977924,8.467303952641268,0.006084563968101673,-30.148288220868338
-12.46288661354718,-26.67527866139997,-4.429214430486377,-21.87250003451634
3.3233558272411265,-96.2834201386172,-13.70745857962144,-11.51138330578242
15.239941103050361,-177.1787035231784,-24.794811246843476,-3.2273025504318302
18.23229229606876,-233.33963570361834,-32.74234093158727,-0.42956471115276396
11.831579670471815,-234.78040457360362,-33.25321620528654,-3.7392926430477305
0.8992324338895373,-172.59700061087284,-24.8145698963582,-10.590305384613025
-7.309186634147337,-63.50374766862978,-9.490080480029567,-16.688786812926963
-8.0242039284449,56.66130865580996,7.78408866206961,-18.161248611312704
-1.8598042054732224,147.633811747545,21.178964435248478,-13.36729788323579
6.613608727525764,181.82434065079912,26.50393729658741,-3.823946744070368
12.871350486947899,156.03095030027222,23.08377730751496,6.404779523004286
15.320876669961773,91.81982836367884,13.950067304813608,13.032645768900135
15.402480399770754,23.941286462444783,4.176881637832805,14.21628204431024
15.952873254215543,-17.7115371363489,-1.7957142222528417,11.392376806223844
19.22349414531896,-22.506183509175493,-2.3300232941583108,7.611971348575446
25.157897456345676,-0.4287680678296978,1.1324477621776678,4.977340007468679
30.79217462439232,30.28210179077365,5.823943206275009,3.299021241260206
31.83229777757694,58.63155788339295,9.957243502675688,0.6913893073319393
25.741499620651705,86.54757611922346,13.689920616636947,-4.615689916790393
13.778096076036828,121.56678257537587,18.167255755653265,-12.476171459660108
0.30720567943915456,164.76400927504773,23.75085065812622,-20.24107383611788
-9.617011857139975,204.25209789349347,28.96780504050285,-24.058247704750308
-12.457320011140665,218.40756079029302,30.871075127525117,-21.323784921399135
-7.501537672038639,186.62320790916996,26.52642870899098,-12.277492542790274
2.617559249798141,102.36920375474769,14.868842004547604,0.5594311990417908
12.60931562548179,-18.234906289797724,-2.0305992152893437,14.123037047358293
16.786551538144185,-139.26618630647786,-19.26739897177473,25.787471224894414
11.939278604074643,-221.19405389153283,-31.299820707430932,33.28735615910421
-0.9512318413701802,-241.97483470131266,-34.905814322622696,34.9167377171292
-17.14192106195211,-207.43494553653943,-30.699173522487207,30.49408563511387
-30.416914663434138,-141.94896388702705,-21.895735101907405,21.839294280391126
-36.192815440528626,-68.3941792304868,-11.573489627463474,11.835532412152546
-33.84884536185117,2.779554157334827,-1.2086581390984905,3.007697393626567
-26.564340016022843,66.35307398082328,8.295580078146587,-3.008066517392982
-18.397840200376933,109.74481937896763,14.9339749110824,-5.162570166701315
-10.975188537317427,114.18969418293695,15.926335755511031,-2.870459629880341
-3.0846630625404763,71.59048095341261,10.164039062869236,3.5534557875154853
6.244486463115858,-1.2705223102068417,0.11081783278728946,12.413781847373176
14.533227483028591,-69.02804204901224,-9.256648715887245,20.774553214483202
16.367607691989072,-102.0095870067785,-13.921059711631091,25.59540401166703
7.6438274647834765,-96.94976000041945,-13.606777960249783,25.58647368879236
-10.342859938184336,-74.25065252034696,-11.191231869220694,22.40653779199599
-30.640117518747292,-54.220214695123964,-9.269928093729275,19.566155264842976
-44.37392814629333,-36.81179386265903,-7.415028611698473,19.323095371210943
-45.64675107522096,-6.866756666113815,-3.162664152230863,20.390579251383862
-34.41506237607238,40.59275764482662,4.207091696315644,18.987683090156143
-15.86435617596158,83.61405789347874,11.286583967271161,12.299012158700693
2.853241055322533,85.9327285979891,12.512580462296066,0.7996360471403916
16.09904672857458,29.415047886689575,5.004631403852491,-12.64399299666655
21.46914071095661,-63.79100284419758,-8.162036629614793,-25.43035239707849
19.702814763118038,-141.02728580368662,-19.367931579344706,-36.812452444123984
13.81060780526079,-154.91351696801493,-21.645522150515333,-47.377513822176496
7.736739039199202,-96.95250747922117,-13.583437329094096,-57.484436709612694
4.363041473209595,-1.628217110367999,-0.01183994254032439,-66.08385955521695
3.870285864322765,82.08607965682715,12.023480050525185,-70.66350586031393
4.304347978603843,126.61706798279297,18.457545090747427,-68.44620962387603
4.267380772329952,137.74302269132326,20.055920889888313,-58.22003388598523
4.932098370867034,135.08023200261542,19.70005932350304,-41.39229780633738
8.984689008812259,124.6159524368949,18.380728008070314,-21.26983566147295
17.47723837233956,93.13715788002203,14.245597584308834,-1.29447455030992
27.78845711135402,29.476669886748876,5.562236467638602,16.101108335692164
34.68292596098162,-52.10767813445375,-5.864180076024499,29.512553246507544
33.69155009396689,-113.96131874376495,-14.822345274445487,38.37268822742146
24.29895554418427,-123.21416339823678,-16.602433144790307,43.034253704663804
10.480375963864445,-79.07467023338047,-10.901778292839788,44.46049120960027
-2.1488816206909105,-12.769410992226497,-1.9513943911333234,43.28547233549841
-10.516046500715975,39.043534698373634,5.114766590697106,39.33419201831834
-15.835197288323991,61.801806231031094,8.141591894702174,32.42594091006528
-20.968905215124867,67.23513242270593,8.682309523878537,23.56324604061984
-25.929912484912954,72.78130272216285,9.247404227447364,15.05323586509969
-26.487022972496792,76.98847677319077,9.82821797809224,9.41985292498291
-17.976000954329827,55.61877627861329,7.154977638458005,8.054905182620454
-0.8799971330291153,-14.534274804339073,-2.137637813237585,10.32706034077129
17.492131561198708,-124.12774921829559,-17.050588763093373,13.568358382175916
27.384093152567292,-224.11886967220016,-30.98286598232374,14.476751415779594
23.57001786728598,-255.6223925718194,-35.70099077492872,11.625772173304462
9.155392993107162,-193.55632571583774,-27.44522245237062,7.006842279536828
-6.878957224099642,-65.82545642211312,-9.808978913006017,4.535228686810688
-16.390178046592574,67.420864709179,8.930618000093762,6.36018973812273
-17.621335969516455,154.09111970925875,21.354588118750183,10.475141061498645
-15.055148898169021,177.01497555531077,24.777948698431494,12.086198069029399
-13.92993321760753,152.0153828152223,21.23168516375801,7.56010957797295
-14.781448777421982,107.18270899966186,14.736154147900022,-2.4902158018591094
-13.454242757430245,63.687624314684925,8.537013853028641,-13.453511749294107
-6.360452421111657,30.088135293618517,4.036143253086329,-20.014556053617227
4.852771288096784,7.043620349604128,1.249727670825335,-19.920905940978272
14.197862810447445,-7.483503936597306,-0.3997184156515975,-15.281211192306582
16.521323098632223,-16.76668251591585,-1.6275356048457943,-10.440998709222729
11.498690506195002,-23.882306731465906,-2.8915205636709604,-8.510921617971514
3.0973720121810397,-27.81147286350908,-3.856340074965744,-9.783004658022218
-4.041807027560037,-21.588374215861467,-3.2984673521159564,-13.01405895532675
-7.747415177489141,2.4808694177215576,-0.006756512354066412,-17.321417000368164
-8.808711677492099,43.38242748431464,5.8351529237511,-22.220451223197546
-9.047389984920276,86.35811078179223,12.014713740116242,-26.352214245178946
-8.928608591032491,107.9114041418901,15.125017294171487,-27.479752581020428
-6.99139988892765,89.02302908033697,12.495803727366788,-24.474217814065568
-1.7300747695834466,28.851486292892606,4.077775936347937,-18.9053724034151
6.001887665291173,-50.73353842887383,-7.01891211225936,-13.945791903234285
12.676350437346118,-115.41319258320698,-16.018386776319076,-11.507066414245289
14.283338095270599,-138.67616803980098,-19.292895397123324,-10.58434883331543
9.00479535894904,-117.5631361315551,-16.503236716302123,-8.350549140405292
-1.6567375376387041,-71.2773932345573,-10.344408757170292,-2.7794919353695184
-13.608171196463221,-24.41775833172691,-4.16484990201045,5.542922982062872
-22.011929433180537,9.830674835977232,0.36684842909286275,13.822248323346743
-23.507347321802484,32.37585763665732,3.5417922705818925,19.26137838509207
-17.93555949647255,47.60065215000745,5.998980610741358,21.123455358819406
-8.409647684188565,53.45534093127982,7.29496545787387,20.714128876158664
0.6774646916324416,43.2922795167226,6.263205555352742,19.453313296273482
6.394988746626098,15.21071147401716,2.4906512937961334,17.43655046716657
8.627880363394958,-23.710114602247202,-3.008416402065405,14.24321866543155
9.146789285346717,-62.26604751115828,-8.536282467527863,10.690321005550214
9.554177970738996,-90.83032816641455,-12.630720776742077,8.885639811358706
9.99545880780743,-101.43858954223296,-14.138024983938752,10.286375202211273
9.453447027051288,-86.84618855839723,-12.062885660744465,14.167419996601462
6.964135981224708,-45.022433933624605,-6.158080561470444,18.212454705290966
2.5777998772439417,14.318864062410325,2.1801707393588994,20.24469715361046
-2.569715954375487,70.21003652692258,9.986009285525407,19.318593346546454
-6.887985333016592,100.02221897785262,14.075585602543214,15.87190700212746
-9.058690368414355,90.78506386449034,12.642997567791756,11.520929225508073
-8.441032047022864,44.36776254192006,5.987409926844331,8.452794585558811
-5.231636580716146,-24.678696408815725,-3.8050436279287787,8.190971246852742
-0.6031928252530675,-94.79958897178122,-13.6854240955732,10.4986578056317
3.3943448994667573,-143.4639475180442,-20.505481281590708,13.496274782385962
4.6610684033242595,-153.47670642360916,-21.887785149264047,14.864390501575992
2.418688527523922,-119.65559954826594,-17.12254218250593,13.084286247513848
-1.9976045830026417,-52.16711078991146,-7.61064120231335,8.219428843423163
-5.803801115116496,28.595866375054136,3.8424713597076168,2.273503912745368
-6.422321914815852,103.74394956897628,14.637795809609246,-1.4562051217453158
-2.9048746363060527,163.30159929983964,23.383040960708634,-0.6639043451839222
3.5938735217383577,201.39930409046664,29.178239809355862,3.348033249324043
10.368144893990413,206.86178413870357,30.286371227472635,5.602850557298778
14.645077768455229,165.20640625531988,24.49090355725469,0.9226007208422697
15.376640653415118,75.42201020023532,11.596674121015376,-11.874676917828518
13.880673799980142,-35.32998095860116,-4.42246405292438,-28.83490020999911
12.415445384607983,-118.80482796799494,-16.511849628228152,-43.508004420330295
11.914501130976126,-134.59236235799105,-18.80786657639281,-50.90213888181674
11.222600957839024,-78.6319796210223,-10.780756395347733,-50.0961232406105
8.498354632891536,13.456820977384703,2.3523543794859982,-44.396738295134824
3.1040561074266564,92.62017156445056,13.496977792575532,-39.02878707246174
-3.7661737140621683,130.84186890945725,18.675364758865605,-37.37297952905751
-9.770794003522225,134.64258102904785,18.93769723157541,-38.26868268310091
-12.585350552663442,127.0687527648952,17.712768899439506,-36.93179879409604
-11.117664297213429,116.90862780036616,16.317291375419167,-29.129168367893538
-6.446173074795592,86.09132187362621,12.097245405750346,-15.01462758685628
-1.6548314719523056,8.789028626033353,1.187126101006608,0.6905262151276759
-0.0775727503190313,-115.26825671705981,-16.608981847804497,12.034771569110966
-2.9782253736275717,-245.7048130868514,-35.534920803760784,15.79772162233115
-8.634399279581263,-321.53335790888264,-46.724941196412544,13.285931759203958
-13.784830493493152,-301.7512089083809,-44.1193676280753,8.986683727089613
-16.31368930105078,-193.81490889666898,-28.692639988470635,7.112922106834529
-16.8637656903837,-48.190864163873115,-7.744385187055644,8.65010246892389
-17.834242596379795,74.67946435202974,9.906300084189887,11.459073515995225
-20.417579397228707,138.64910922848213,18.99689506974479,13.327959870421953
-22.33435207119814,143.74844475839387,19.63997589274507,14.705024742251029
-18.84142028725669,112.05611087213316,15.24039913725165,18.06624355964274
-6.866841127792794,64.31821970978072,8.931961107601662,24.70793252842247
11.156609588344008,8.882400596708825,1.801873506360225,32.63149136150026
27.6399560546844,-50.55195057021098,-5.976656035778198,37.72616800263425
34.76838254096065,-102.38935196037292,-13.104089523853641,36.91441502081354
30.074176979595556,-127.3759458274946,-16.92454821031765,30.501370288687983
17.949681650703344,-111.92137172600863,-15.272732322129874,22.217472548193733
6.055940485141646,-58.863904176352165,-8.194599815508484,17.054723767028975
-0.12966938348774293,15.125392697850826,2.1682145729135014,18.007189362085622
-0.4389948304486575,89.78011754667756,12.904972087953098,23.72750446222398
0.9912005212749595,147.54798948044032,21.292179399746892,29.14270014889251
-0.33978028513098174,173.53891239638776,24.972538213234696,28.994204881703197
-5.392946036928994,155.9087863276643,22.19484682503659,21.528394559176814
-10.752974559009342,92.03498325382299,12.743027576636942,9.360181212020285
-11.771116860671018,-2.784627062093124,-0.9597373385180566,-2.7514680348024134
-7.0909789771644345,-94.15723048448062,-13.896160910573423,-11.020834472080413
-0.26700220831677923,-142.72845039181726,-20.566993783122594,-14.526694267083434
3.214818729408222,-128.41532081031173,-18.339833734127662,-15.182217292564438
0.6196693690091593,-65.77769261799901,-9.441020147725395,-16.04327488720989
-6.052090838750692,5.752269882249894,0.5453500969835113,-18.881429442103013
-12.1381995073735,50.97488931706167,6.7706450139640015,-22.742572474209442
-14.002394326886701,61.793229402711624,8.240773013810896,-24.892752999333982
-11.209006920334911,54.06902618741104,7.2606102314925325,-23.411783429807056
-6.119832686718747,44.98297160765718,6.192671085129376,-18.8911370643093
-1.874422560481527,35.716160925317936,5.05844288166535,-13.668981334099092
-0.3049631783424159,15.820139081879244,2.2663871878783532,-9.658302277391522
-0.9563668824984771,-18.69500223763201,-2.736550139127296,-6.873369226384065
-1.6333218048317646,-55.14879089484936,-8.020050624266307,-3.5775057402675574
-0.025962106697409643,-72.91930879750043,-10.504596223441618,2.3016957668548206
4.618933288648419,-60.7931915337948,-8.539405988131472,11.23132824014868
10.781115854048736,-24.81287757522258,-3.0664757632248465,20.83922500366706
15.394548485608274,18.767787990335385,3.4283850487353806,26.9523896625921
15.74789245687778,55.26242479830343,8.701649637126753,26.851893195305685
11.430325643238536,77.37900031167499,11.683189175179038,21.876933234397374
4.857112573913512,84.53678923731677,12.403104780902627,16.390504364834833
-0.1991101164718358,80.33001588815623,11.55752700150662,13.88768630888491
-1.0141188563432493,69.89458325293339,10.01567073124046,14.228000730611052
2.5492521291649264,56.63592068083283,8.27524049558316,14.440252691226455
8.244675519542133,39.539225398688224,6.084037213901531,11.517176297755526
12.8135620690487,13.543879659947017,2.5586108600834416,4.260722080748365
13.543337340915786,-25.957579107410837,-3.093702772520052,-6.690052750992284
9.567978679008975,-75.92205778738646,-10.476148825544998,-19.597720930913386
2.6204835968706246,-120.49729817164416,-17.22364147007109,-32.25405176290683
-3.5016247772957025,-134.87061762416891,-19.58240843901137,-42.40761491094302
-5.165880371031634,-100.3117663549655,-14.682535216252795,-48.061774884074346
-1.5871954610649786,-21.19063832818547,-3.116455712592366,-47.81700342362351
4.363461380013939,70.99412028644834,10.442542352274431,-41.61580574177936
8.159554382129336,132.61180083712608,19.495604941201236,-31.640903777729548
6.738440270930793,132.59259621342676,19.423105100103264,-22.13785370954272
0.24885870391918768,70.54247277871949,10.176353327878363,-17.394351629279278
-8.434631549387726,-22.760145509777544,-3.67454692044553,-19.10730062175449
-15.60610760282654,-102.65112432006617,-15.520808800961559,-25.419707251207274
-18.91418032218753,-135.59962819499066,-20.42205215841795,-32.41858672259457
-18.778299939119265,-116.78467218452704,-17.704631545405658,-36.62908206996984
-17.87293873119497,-69.18693427665211,-10.805942255141476,-36.62986644789505
-18.592801353369396,-25.35021236708369,-4.526980678212402,-33.21838369450746
-20.599765530797953,-4.532846774373759,-1.625029976491752,-28.537364394604705
-21.009141486799358,-0.8242350904557647,-1.1112228339101187,-24.641593220589165
-17.103903377313838,9.11717486218315,0.5056483395209503,-22.14582548897086
-8.73174555723856,43.14681961730543,5.804327079242911,-19.866964004788088
1.7761427910494292,92.55652791410692,13.419290796403049,-15.704072585861114
11.396959990521554,121.68295127239024,18.06976469912419,-7.811414325650679
17.843337703675047,92.48208390067792,14.167213024219045,4.840344034462264
19.836542299387723,-3.093503780032962,0.491784229106389,22.222768363719318
16.897599661980287,-129.23308110422832,-17.820972691967146,42.78675983830813
9.332459726907109,-224.36971805642318,-31.888082854278053,63.3764126738526
-1.571487122481475,-239.65967092498866,-34.61240369508645,80.40210459190136
-13.455393454797271,-169.6199010110465,-25.0915886065156,91.60312321112124
-23.268245186136472,-52.49111148922395,-8.688550694036998,96.7033712776508
-28.257649645840523,58.05600315971475,6.996897787424448,96.6040292549721
-27.098376756626017,126.20363210527054,16.86848551099671,92.47541011740729
-20.300159504044824,147.70004199410147,20.28929942155622,85.61216310990625
-9.652790061546488,138.77841239160057,19.512112836851987,77.33996529394116
2.5231451509878715,115.0787338365273,16.679182102892383,68.37173378850886
13.601452808141389,79.59031907874054,12.096357312712044,58.403269284125614
20.78853792985421,27.727340615013663,4.970547391989613,46.75545117386549
22.086985127845626,-37.42304276392035,-4.348484377552203,33.364551350200834
17.742981121170544,-95.44026161132348,-12.907952344047436,18.914080981231983
10.489329646036145,-116.06797543811206,-16.220256599418025,4.160362181361759
3.7206695644514025,-79.71775061209517,-11.30278961581092,-10.559345919226578
-0.8915617011435106,6.518328918555613,0.902363013281632,-25.224072720274325
-3.968216284838877,111.00355042170197,15.808925442219529,-39.712501690029555
-6.689405676347818,194.3434777812503,27.68650783266849,-53.178275365355226
-8.646490327006696,226.54217429917398,32.23359237577538,-63.417254964057605
-7.444146545081677,195.67797161406023,27.84613532387935,-67.26579802057546
-0.5619385678277451,109.80983094988375,15.804205026978334,-62.79141446300638
11.87974631347113,-4.25395427827648,-0.03620931807502334,-51.780557827129165
25.795552543436177,-107.04828993015343,-14.183681198458359,-39.57268719562635
35.051953646705385,-160.815170318412,-21.489998945015124,-31.424676239209735
35.89157136082151,-148.5186587195003,-19.6797029820748,-28.379646733017918
30.20851738116464,-84.79289088134335,-10.771520193736595,-26.491357091800584
24.19113876240321,-6.918287749135929,0.1576510819734238,-20.16042897395084
23.052420270155675,50.86648302918536,8.423382404223153,-6.793210476331066
26.61703049283248,79.07147717880314,12.651134474069439,10.764638162059672
29.782462434876106,90.85066766039326,14.49465807708057,25.720732591565366
27.19391984579276,98.99714620478697,15.543625803441097,31.763424186755895
17.874442452902592,96.91323541195152,14.80171939305987,27.223037814367466
6.003638554082817,64.52684875495133,9.575676309707509,15.539660785156114
-2.657125820148907,-6.5182179074329785,-1.0654570694095247,1.5616402738286665
-5.737296132976023,-94.96164616265278,-13.947323746141533,-12.65709939404885
-6.3579683206592685,-159.2675643001679,-23.235396087400144,-28.25746589394605
-10.321784082301203,-167.4173199180351,-24.593403806451953,-46.18100235617791
-20.86839878798771,-120.49471251078806,-18.331880321472163,-64.27959236553586
-35.90574252491588,-49.36763789239457,-8.79845136538702,-78.18334438300002
-49.9729740103941,11.154029600593265,-0.7482365782647815,-84.46013275175243
-58.305434181905866,46.49552568996364,3.9457309673307908,-82.38817446296319
-58.950497939510385,64.01332676683627,6.43607214119339,-73.10081259230661
-52.0923226061918,73.56414661596651,8.134062840664708,-58.01035495608899
-38.96991962273087,68.52851284524316,8.027741943035213,-38.560984429604986
-22.13556073727904,28.739516919948734,3.0917244134154664,-17.315822748105184
-5.965040819454939,-54.7781677842437,-8.173598235287747,1.1979486701707929
4.520409705067641,-157.45698008003376,-22.466982374188564,11.514960052193652
6.364377669669461,-227.2130733118725,-32.42631614340166,10.357130738592092
0.6378013056895143,-218.750593239794,-31.477063381220027,-0.24731543869958356
-8.205641557517575,-127.1622658085939,-18.7024654164779,-13.130088101916462
-15.143349290959561,8.572260610549167,0.5198962482827559,-20.337049940973685
-17.3796131099007,132.9933840556676,18.33395474821359,-18.172248785638025
-15.136877920009253,206.6668998663925,29.049669732608393,-8.25946749076524
-10.212382806136565,218.74240331824615,31.01964676542224,5.864336543171725
-3.9454126668323304,177.00331952800533,25.301739886614218,22.415063963410212
3.3669209682999193,92.99909114251761,13.545291755152975,41.59714808104939
11.217942778107812,-19.888060739434827,-2.3462483566775405,63.2611204379234
17.579582510397906,-136.19550683842454,-18.80129453338094,85.36289812012319
19.504307324809616,-215.04325517542748,-30.071061693981385,104.70050324123353
15.437782523165147,-218.59284442754588,-30.77876374522413,118.55989237981724
7.027245497274683,-141.4066298226331,-20.06261056575684,125.56822367402917
-1.3159189732763494,-21.941049915565962,-3.2519569578072276,125.47417569272953
-4.756893615808351,79.10162233500196,11.139699822292762,118.52075588651591
-0.6954678979473419,118.09207340190491,16.951706928073563,105.20305547671923
9.664007719833098,95.06983491131056,14.132207249329657,86.92695981869325
21.7102629031167,49.15550560142587,8.096006118252351,67.01086267589109
29.927537732521404,27.213063866238834,5.329910889227642,50.18419526575466
31.150023779810013,47.485563674269684,8.310386638987222,39.56549826076847
26.13890619155776,84.58679388111283,13.417556452362723,33.340131232662976
18.267151501152657,89.30159407632397,13.724556795422261,25.031100380921174
10.77633709547754,29.551112656809156,4.766477642746871,8.191919273052514
5.123720477441378,-80.5477666667115,-11.353861002489246,-18.35687587034701
1.3213476100714063,-187.0380563321085,-26.865522366455597,-49.231072275997555
-0.8333042518173577,-231.14112143493253,-33.31406819045927,-75.68255672943341
-1.0326580463871509,-185.35615165090474,-26.72554951671621,-90.38151253848744
1.280296980696936,-67.47383101634902,-9.636522196031327,-90.89273500166007
6.000891567756373,72.12278543702924,10.691966128334268,-80.55335439005026
11.590022678337519,178.86821154076029,26.329171970384927,-66.44457564896193
15.350182892084394,220.81590182807102,32.54710953650597,-55.26985776115029
14.966911572111812,199.45277636841837,29.450597496761226,-49.70554215003377
10.212290011388694,140.7879986580563,20.774598225773754,-48.02977549478244
3.2281346327211407,75.43967426028038,11.030200952056912,-47.17928554642243
-2.9686645694797,22.10864519982799,3.054098126031908,-46.28545106622284
-6.4652344045600465,-16.008981776175016,-2.6019772338049316,-47.4866653849187
-7.3732103276545,-43.20492587769711,-6.560884089096612,-53.34923856981024
-7.295466777374605,-61.11758941998921,-9.134953046265531,-63.07316388289741
-8.035745340623826,-64.98622706932231,-9.725504786190324,-70.9658634820717
-10.468899397448684,-47.03279473576425,-7.255559783073798,-69.49623660134037
-14.154927131148469,-2.4675878847329655,-1.015093666558319,-55.395805985187216
-17.766743536178087,64.6919253373452,8.481398107703708,-33.3900527610476
-19.860708928482612,136.9692678160972,18.787544071433956,-13.083678228139846
-19.388052393290625,184.190465662741,25.60864498329401,-1.0709042470909085
-15.912175527775554,175.00389029284807,24.44939929771116,4.194876724838493
-9.997846109033405,96.20795122421646,13.379868993161203,9.727658257461382
-3.6748870441468027,-33.14849332332837,-4.953887343522699,20.559251021768034
0.08079075289386085,-165.33649077125364,-23.818306153412287,35.0066370073168
-0.6278244366634664,-246.09272580907194,-35.48626977923749,46.55710629363192
-4.629405064925187,-243.18472374324537,-35.25826932664817,49.6385131334157
-8.11573989366972,-163.06601561368353,-23.882804220115244,43.90382947594531
-7.665642893259872,-43.59560952616872,-6.651388171948214,34.09001754075637
-3.0837467564472316,71.09928963081988,10.088044981689695,26.295256458628685
2.6677216598658884,152.3332547157699,22.062337854449613,23.72211311687245
6.148885575933825,189.45388868827183,27.57406578882227,24.98771286284747
6.134679971358473,179.3888190832414,26.123415293253963,26.138933215563657
4.293578568593801,121.24870189202696,17.662201361870796,24.45066010945146
3.7305664529743012,23.269773345382987,3.524115077485838,20.502497562531357
6.49478572764942,-88.27978730732441,-12.41058451951515,16.891114596615466
11.666725629349534,-172.44960692086107,-24.287778375483647,15.416971028885966
15.636582041162926,-192.43905740634068,-26.978372562277748,15.708977411732564
14.806766568602344,-139.27437277483762,-19.36038852119246,16.08006851624195
8.589707879271096,-42.57307614007722,-5.727330212763019,15.105907673937585
-0.08737506328559237,44.116361791885666,6.347176915675203,12.502274554936308
-7.133520720246512,77.46724584206588,10.816814720493378,9.128140116024381
-10.021244983666639,52.742227435287845,7.119016659017947,6.364801892409929
-8.546032049601948,1.7549673853238494,-0.15447774828790134,5.126291336429465
-3.836434404247188,-38.34950881409753,-5.707127442267253,5.268689902376441
2.596886219913644,-56.54613638711945,-8.022576637934835,6.126899959383419
8.90090348602792,-70.44655357695628,-9.725486365669687,7.480463723950827
12.746485116582816,-99.78184965045347,-13.768482473962989,9.41358898489445
12.023529792260563,-139.38017094885606,-19.506725332915362,11.155134771858167
6.307908441505337,-159.00343382262747,-22.604653233836178,10.919766873651515
-2.0946085202266866,-129.26196638392042,-18.719366973585615,7.662861391659512
-8.913774213357225,-48.224467281623596,-7.370096284930951,2.6749049126866526
-10.670831256759335,54.30501008010397,7.3150546113925,-1.4149428943509597
-7.551147085946607,135.7119136977113,19.189085021278636,-3.455995427922089
-3.5574023207753935,165.7726735169648,23.709000428502854,-5.162427769132003
-3.0261121279436245,140.66037992060646,20.11819269931381,-9.295231680158016
-6.315879026030736,79.41455166425679,11.14205698882724,-16.303100752051673
-9.100517502645436,8.890371610491721,0.8533771083457276,-22.661558101063473
-6.611657599557493,-50.14819835123953,-7.531872736611419,-22.78448917313449
1.0722588044223516,-86.65546722504905,-12.427206298902059,-13.504225055812233
8.205036591699855,-95.17286207198664,-13.318778546533272,2.365787527427895
8.195918864002183,-73.90146423378958,-10.258809794734322,16.953837657032082
-0.5132767839545748,-28.51164353451524,-4.136346236384143,22.893253899615058
-13.055208240532773,26.135946822869997,3.139710449672411,19.056803693064417
-22.264334256028416,73.26688306429709,9.492439353973419,11.065555780057277
-24.41556690277174,104.59281034228808,13.903415771273627,5.879362751065319
-21.651206246379406,121.85277399360491,16.52083776572212,5.616569549945572
-19.192565891022628,127.36252868810713,17.431062382354455,6.415243223113728
-19.88645296383458,114.57333785050106,15.556819033922915,2.9804661232442378
-21.224470119535194,70.41120927031004,9.134482227738893,-5.904853835005506
-18.017976265307627,-10.325294124736608,-2.3395830007261424,-15.990083533377552
-8.300275101322157,-110.48977911093709,-16.303689362643233,-21.191274430504087
3.6919418806287996,-190.81416878777804,-27.303849197021602,-18.803271687631973
10.79153883174171,-209.66109440898475,-29.68273570183038,-11.795738079260111
9.185142738654815,-150.403018113133,-21.22518229070505,-6.331069048933337
1.5775949399370661,-35.21222485010227,-4.995205443067627,-6.784421743029488
-5.299381173473622,87.07116108761609,12.292341372185886,-12.766537869282883
-6.021541048775869,170.38021172790334,24.25915711402352,-20.634310832282456
-0.11722650442370967,195.90965258046504,28.21836694503051,-27.400327031519414
8.352600819530673,175.52516362263435,25.68599621020202,-32.73540835839991
14.454111016290867,136.44081942104003,20.34755400029564,-37.48719356319228
16.235663514839402,102.05115547357317,15.47983989817691,-41.36546048065001
15.632597591819488,81.2322059393977,12.452914062169384,-42.89516197540645
15.84294417291519,68.37735736329758,10.611017711037832,-41.341802392786455
17.969329604843345,50.853605696924674,8.187251004393604,-37.93506000483493
20.263525025845365,20.33906924895008,3.9004725862088043,-35.06063997645369
20.22817740608605,-17.392385746039974,-1.5359246939208242,-34.535464206335455
16.89046081072331,-42.71363672637997,-5.341180774693565,-36.44148753001479
11.152776177932713,-36.02730469098506,-4.65018352774748,-38.86514084847943
4.773712716007427,4.20233626856227,0.8410322059107328,-38.41329901781486
-0.4679808635757533,55.60299679771653,7.993802076308611,-31.559819504912646
-3.1468214043434704,84.76439732648105,12.063236578836856,-16.502687126604368
-2.7734795384133446,68.609128042623,9.748957424413133,5.498819856372009
-0.44296012164361165,7.847587587815581,1.1022342864264278,30.24452558814718
1.5422827548083937,-75.7122353541405,-10.843968910820548,52.224763910495724
1.4044550713128823,-153.83446102773595,-22.10618766634318,67.04914683511535
-0.3404903308798232,-207.2406425622398,-29.882892572012572,73.55265499720922
-0.7940508754427784,-231.37995613744891,-33.38147982109961,74.263923510054
3.3392569490487514,-230.30657471969474,-33.03031546963835,73.53405970099257
12.986063851551545,-206.60565424010022,-29.158431685438632,74.42107313049682
25.27834782909414,-158.47148747892078,-21.64199866382331,76.84016449602952
35.068329747759705,-86.76443399756897,-10.848993387466816,78.48125038613341
38.92015352262442,-3.5018230154989944,1.3269026493502545,77.32447810224218
38.45437573697575,68.70415053474954,11.70578571221199,73.32119314566687
39.43029315548616,107.79324882129261,17.38350426708191,68.133482889178
46.42757455958822,105.72205334765965,17.41869394207019,63.663518476825324
57.659582881323246,74.02866202654344,13.388194202804574,60.52527298120793
65.00571017569787,37.22676950314925,8.437304848596751,57.20951873321928
59.626928810751586,18.365257219289294,5.466593141527252,50.551786449390846
38.49024462508388,26.31999315023652,5.611041547998819,37.66914815940934
6.7272969364786865,52.5144074498944,7.879249692642175,18.188853593209405
-25.554053235308853,77.92499741966508,10.010838525664001,-5.200744570187643
-49.45316943067821,85.59346988937146,9.985209292285248,-28.441421134244987
-62.16626575470905,71.94012404186222,7.419231307249476,-48.292068723353104
-67.27448933436271,49.87250441339296,4.00146778920401,-63.03188439135506
-70.57638541506728,39.04603806231215,2.287250895652659,-71.8247600263372
-75.34021559335467,47.38694364770127,3.262858746067787,-74.35323544673489
-81.0445135341329,58.67734179614025,4.617307707053703,-71.29673780262647
-85.64906680543278,40.666130279517304,1.8027540872442989,-64.62329374325562
-87.88640443809497,-28.175290578598446,-8.22082249678282,-56.90065866226113
-87.26006046308721,-134.10827832800467,-23.450520401849055,-50.22194506356354
-83.14182448832189,-228.74710149601844,-36.88706090720331,-45.7082243377649
-75.17138979217312,-258.37329657161047,-40.775983660058365,-43.70049364094613
-64.45512707638596,-200.82902446333716,-31.978399620223417,-44.13530167986101
-53.375227164275955,-81.4302370622515,-14.253913839861509,-46.71115398680228
-43.64572509491026,43.72081934429253,4.2352566476508375,-50.698472196611284
-34.70047454723923,122.73324721425791,16.041618592602525,-54.537036066186914
-24.176740473093528,135.0179558141034,18.311366442590693,-55.864104198102595
-9.963326791352534,94.39713902821877,13.135181415645517,-52.56986822105683
7.992728071890184,32.18302926071127,5.025520177920982,-44.345090133072944
27.286361850361043,-23.402101868425937,-2.066453342887436,-33.274545089896016
44.098169177540036,-57.56622191526754,-6.190861525230609,-22.820762626440203
55.123001413151826,-67.12994330142554,-7.046096408345842,-16.04326858895553
59.46797007229842,-54.451539274429784,-5.013989838227338,-14.075786171383449
59.317455012384606,-24.341012565297294,-0.6839696962262712,-15.131549639317836
58.57652023661822,16.570242424744652,5.173285388848087,-14.558242112085708
60.076981843647594,61.89015018682084,11.770440153459987,-7.136661792817523
63.28296184662047,107.69708955372258,18.516824614171668,8.693953384959649
64.43798626367968,149.925149938069,24.649445989363898,28.112354326846177
59.45175522051835,177.81357569720794,28.42609147713025,42.325324598319945
47.54445920266891,172.34244969857414,27.071643573760053,45.13765274033334
32.52557228023096,116.2783071363368,18.28457543786162,37.9875491920114
20.119406235805794,11.073815741625316,2.544287523920378,28.698517240658365
13.436463428181355,-112.80168262017268,-15.614646980344633,25.1302272254567
11.039044671789023,-203.98612113751926,-28.863203743590812,29.541295844288598
9.73591568880217,-217.1209638476826,-30.819032909686904,38.37078816934064
8.985303747915458,-142.6180277822248,-20.125764412759064,46.92384502325955
11.653857868163701,-15.361267098789165,-1.6713958258975254,54.1030498791115
19.943207429828817,108.26931926838473,16.527468106548483,62.49728812740433
31.06986269213162,187.70143469498686,28.494430687423208,73.69182091580787
37.9237337302149,218.00458215571527,33.182414045771374,83.77073855276032
34.67438903204627,217.3331911001003,32.93113340036288,84.57529963344074
22.052441441124355,198.3390821779562,29.598824918890923,70.79654563398456
7.166074035515386,153.38731783013114,22.42263110966895,46.35272412316994
-2.269580828939842,67.7091772775364,9.639183659921622,23.09651121562282
-4.274630270284556,-53.17888337800827,-7.8654515611692615,12.044316903439887
-3.75354816781375,-170.1307179230024,-24.68632665970266,14.819476076232098
-7.268168409644848,-228.18082065292384,-33.21637805795637,22.960914650970555
-16.378073182934408,-194.1089959981038,-28.74232488708818,25.459665036972364
-26.113188931748162,-82.11668818266858,-13.0724522008713,17.804090659167194
-30.036664323249024,55.12483414961732,6.511475264385742,5.057949506643892
-26.599788472118988,161.53764213582502,22.003716245878486,-3.2175555701426664
-20.397151083147733,207.6558963694272,28.94065530854631,-1.7056442001118024
-17.502384053784315,193.22809454473636,26.998378153488368,5.7437921904986915
-19.929410023440635,129.62484730240575,17.721258145963763,9.1811089564318
-24.4204177003777,27.349680439086715,2.7788165368244724,0.574540417036677
-26.010081134008672,-98.15102621800563,-15.36810820837278,-20.578816121505614
-22.577880032619753,-215.92888452993435,-32.16254396156409,-48.305021430316444
-16.452325672814165,-286.35686712149777,-42.009221242869025,-75.2335400422387
-12.158146089154718,-286.19959289230763,-41.77765026975871,-96.22656360792661
-12.574755185575324,-227.3596566345889,-33.31965290069446,-108.55320689628023
-16.81747693775151,-147.81982727703976,-22.0642887551433,-110.91839599532412
-21.473535740130473,-82.46673829296999,-12.874169127839195,-103.65990197111003
-23.74924847613284,-41.964157331702545,-7.151839713795139,-89.59160741596367
-23.397145127979943,-17.306983418189894,-3.5873360108123977,-73.74119209756189
-21.83753472029036,-0.9152620335636265,-1.1551135942195572,-61.53340983350162
-20.04604364000986,-0.6477032678965485,-1.0326492871680881,-56.39671416857096
-17.82516652936904,-31.956896752268655,-5.436324622658141,-58.01097581836451
-14.86397979498536,-95.53281428487936,-14.451728330207597,-62.14998667522179
-11.634134925133004,-163.9006227422251,-24.145431250834378,-62.54315375551763
-8.793712678130907,-194.3103046093633,-28.392476545082786,-53.98028104983544
-6.1433940854956814,-159.4595490670354,-23.251323817661483,-34.83182989325584
-2.75847759209527,-68.08917361346207,-9.936413552769643,-7.651162534819306
1.8657498394691028,42.98257089350318,6.274472482959734,21.969708379455263
7.139829839046631,135.81053085973448,19.889469093303685,47.504616482899614
11.874116629606782,192.52090641134353,28.278736475599047,64.17076355497562
15.273584581173129,216.35237607601644,31.87109177001785,71.47834682037589
17.511731812180606,217.92137632772761,32.20287844445357,73.82681108303915
19.471839452634786,202.07925452246852,30.013303255626,77.74526195612431
21.766973599328217,166.4172993387435,24.98363531526683,87.21103942269441
23.77593162129503,110.10467242484593,16.965033445806835,100.74733537040426
23.793814753005822,41.994735055040536,7.1530004166599435,112.64067811874682
20.492882723117557,-20.63990615006796,-2.026340346024935,116.9782910538057
14.259664107959331,-59.682022252141394,-7.944547072676217,111.23559115069395
6.839713534705596,-61.54275323053271,-8.561848639671698,97.21693289195615
-0.31721975926488416,-19.524776021443678,-2.8457369273779896,79.28658731581744
-7.039232490427621,60.74734108526892,8.40093372014239,61.295305962463544
-13.71260453264705,154.11059898469998,21.535237234849156,44.34367879584797
-19.933466624205806,219.20557830091315,30.6195103843466,27.17897686975576
-24.09592656765824,219.52909889925186,30.4725822555933,8.903100214434419
-24.151659004796887,149.71814969746103,20.41892883647269,-8.78393033147342
-18.7199563640151,43.70834987884521,5.411198489090753,-22.343695628866918
-7.938003628556788,-45.954554361145085,-6.9893047139697755,-29.504840258804474
6.118961439959448,-83.2204648568399,-11.688459845992043,-31.560619521314983
19.703482943181093,-70.15191579106002,-9.160418748858838,-32.7261806913946
28.57378678731226,-38.53587727088976,-4.184121168221723,-37.283366347849864
29.71427733304864,-20.777575223499873,-1.5699511252857734,-46.6943852891507
22.755324474117554,-25.376182198712918,-2.560223481708,-58.439517913793395
10.433601729471354,-34.95036296727228,-4.522596082466546,-67.42507259885136
-2.1947880006765272,-24.3545524018081,-3.5959798807648182,-69.5503214672865
-9.843095263845202,17.101275892530744,2.010614619096576,-65.11729941839384
-9.76533427382171,74.41712543907902,10.268288484365126,-58.98434614737752
-3.4559728388918085,113.00260251272366,16.125149520914608,-56.714543822450814
4.463046390907242,98.62766152252306,14.431663002766458,-59.809553114269896
9.670192034154192,19.51682258403111,3.285494622065823,-64.24905979219162
10.964479837091284,-103.39914804677261,-14.357191674330892,-63.563902950106
10.101123649625071,-224.86616115872457,-31.895823261034774,-53.74421215711006
9.382355175547286,-297.23918487655055,-42.3582144036564,-36.136727132131305
9.56879447594406,-293.5766367955766,-41.82640356485137,-16.45629005565687
9.43168181121259,-220.0571615969453,-31.247263388280427,-0.9081581450542481
6.5661690505335475,-111.4292127402849,-15.739366476626586,7.7749654133460755
-0.862904747435435,-11.744588028785662,-1.7353282317944208,11.664405506975374
-11.734746315022024,48.091502058969745,6.365598971356509,15.570519921398969
-20.828571539687303,61.58363717111436,7.875019848059003,23.35942664244848
-21.324326552328504,41.34697054467756,4.9339001133532765,35.41993676900896
-10.132652568640278,5.60536522099562,0.31459352057145223,48.669692877424225
8.549597134995285,-30.737434919787045,-4.034583334934512,58.42949099771282
25.163242178006282,-56.35879028241952,-6.936085191980194,60.812876908201304
30.927195170534635,-61.596157235832884,-7.41517471685323,54.809778406973585
23.506126108791012,-41.2535144322916,-4.835109188546907,43.41640952755436
8.421846323813366,-0.1985213087013456,0.36393411732681785,32.80897667809894
-4.494679304661311,46.72149900037646,6.509120265802062,29.155387775015793
-7.451136765923768,84.30128735910564,11.780129938196536,34.600699762175026
0.24084402242488123,108.2627723104816,15.594380019010341,45.29598826393378
12.133738321643284,125.41217799860432,18.62770881264041,53.227586228233996
19.73250815693153,140.30252523612225,21.134017569151837,50.871099053895406
18.42018426007473,142.3535295691131,21.37059319794394,35.7525619156162
9.514812617534009,110.21721961747785,16.32425846544055,12.081838306505649
-2.1936388751757208,33.291552950747054,4.693590543920294,-11.69102552008425
-12.245962681727802,-69.6717301569583,-10.610397342736853,-28.071513941881452
-18.6194861680639,-155.6595317451497,-23.29674035891601,-35.03607140508745
-21.68924045904932,-185.39196148338695,-27.72471343495,-36.549544025245666
-23.112254645522103,-150.45125227251626,-22.759169460053457,-38.79841873899311
-24.51085607870383,-75.64446039681133,-12.049412744671336,-45.343051989033995
-26.514112514320104,3.447871213889621,-0.7504283398276774,-54.879975147894285
-28.645837410401008,64.827707722095,7.99084179908969,-62.626121727239656
-29.9403839342687,105.14262068223817,13.736268966342283,-63.643041263232796
-29.475454411176674,126.54549517327519,16.83927880965764,-55.84784145483455
-26.443489427924753,124.14947093653086,16.634822766910993,-41.18637715261717
-20.359289393179925,89.41182984841099,11.916606474926349,-24.343787638267187
-11.734829371206907,26.365563610638898,3.2422182357008853,-9.74134668716689
-2.3392522419713697,-37.71624185162383,-5.543753930388251,0.8657001028599428
5.704162144231329,-63.66647360584488,-8.900956676379623,8.074124183005246
11.040721698979931,-30.07410674555233,-3.8099614296280078,12.35720523694319
13.020922207216081,44.07454074354882,6.964010061520477,12.399616226247538
10.931527874520556,108.4574460174923,16.139449222905196,6.30854803541613
4.284687274409536,119.36385773521602,17.397282965544157,-5.579777092040158
-5.721817144334692,74.82324351524001,10.509717835618472,-19.47081153741373
-15.598165842771365,15.304509005513273,1.4702111286561617,-30.034437819549687
-21.075833864336737,-11.372349747585416,-2.631517415165991,-33.914103773571625
-19.544017334978694,9.412115914759584,0.43442994074095154,-31.77959136516281
-11.582148115227552,47.92977784685222,6.35950319265697,-27.19653299428376
-1.03489250506876,57.37572666335981,8.220281648307399,-23.31991322347738
6.339886872774773,14.949342971203354,2.4591600324847214,-20.28041148031473
5.766112958827107,-59.474203252851424,-8.288693508760316,-15.537959673998166
-3.2167086457061953,-121.70533161148042,-17.68091826239123,-6.764287054899132
-15.7799583783168,-138.91599647879062,-20.75964132141903,5.594270675376057
-24.733724906374785,-109.82458069663872,-16.9979493970188,18.557927906938463
-25.043489264032086,-56.217610964522564,-9.293958767250924,29.278526995432088
-16.0988650747985,-1.5279887926847446,-0.9937091862240429,37.40259138649295
-0.7794667693726667,40.28751826766881,5.755260019148199,44.96509155768588
16.538735002964216,60.08827473013507,9.427950450377073,54.195435446674004
31.389503081129533,47.28713005848257,8.287189330894062,65.33979718953502
40.382094585341044,-4.254893610317776,1.288163313036994,76.18582088478566
42.422996635621686,-82.49751051711443,-9.88612609588504,83.49199308621274
39.08237772496395,-153.7287341147343,-20.3049682494551,85.33326258355838
33.58064167983402,-179.86429442550497,-24.330182375881236,82.77411697984448
29.254395917399275,-145.24830309494982,-19.549104909477325,79.45438657344621
28.37054506333626,-69.37809053081803,-8.663154983989742,79.07123455742465
31.20568768366078,6.676748259334419,2.4251785467529188,82.61991177635338
35.53741038042822,49.121197033316236,8.743261680200295,87.61118384509817
37.66776592095899,52.51462296975792,9.332762906984492,89.71160804802152
35.33606447897755,38.45194290623728,7.197490946893124,85.34671321322851
30.41793975087603,35.51172533729117,6.543049860080583,73.6066546693054
28.430426484445466,56.94954462883864,9.540321094810478,56.66114235871357
34.41898406191453,92.12625056453396,14.895713690244728,38.50132856064967
48.2844759859846,115.87677499628141,18.97913278948118,22.43862941551017
63.34332911360315,106.79245825314018,18.389353408517444,8.87563474832391
69.47351889937535,61.29522455946257,12.130683159043164,-4.821125812513928
59.010611697408656,-3.636643136488898,2.2852039579877608,-22.136026595751783
31.665435862583838,-58.64947560150697,-6.93251703322947,-44.76146712727788
-5.045496782264895,-76.87040665431597,-11.295038052206765,-71.42804097006034
-40.56274967182949,-48.61490792402586,-8.906597333435414,-98.43573563680195
-67.66356303938935,12.939890075851055,-1.3230732871101847,-120.99264769192145
-85.07050423579439,79.89229921178944,7.4964540700492615,-134.81177995174392
-94.57365200830678,125.64404428226364,13.635412273133431,-137.85608173870096
-96.7906638066185,136.51808242263982,15.094867187125278,-131.7016872630277
-90.66640529706432,112.67678599525843,11.94953174371821,-121.47250756128885
-76.63064123388506,62.88128726841236,5.442398273217902,-113.68342599777529
-58.83062289002342,0.40482968621921034,-2.710797861362432,-112.62125637127346
-43.53612866547815,-58.54600535205085,-10.473891045786125,-117.33518320951299
-35.481677680228515,-97.34479704100985,-15.67850077103192,-121.70229617751988
-35.39725597519698,-104.02781928159955,-16.637854534233025,-118.32490899947021
-39.96782750512718,-76.27132152068374,-12.860521067420102,-103.85494303966557
-43.79427120123392,-22.565627760371157,-5.3120962252479975,-81.5585695007747
-42.54352862034078,41.02667952134944,3.90148585011508,-58.89103329866166
-35.655168053345946,95.6120066449311,12.08701564227053,-42.186893753694825
-26.38073253339005,122.96877252804393,16.465833885442514,-32.97225490646116
-18.73000470795227,108.72962230999637,14.777370671610289,-28.382523655454303
-13.887384421639391,47.69346251096626,6.215227798653748,-24.160621744920267
-9.244097151943153,-50.43351630141193,-7.6993546713004415,-17.161857163096712
-0.7322885337773881,-161.01539517948024,-23.2249801204873,-6.165037079053478
13.475908669697699,-253.28846716047266,-35.84362652847743,8.116505325888468
30.590393555260317,-302.69031344048295,-42.14946065930441,23.14311704220103
44.06427522706757,-297.97152615863746,-40.83243022826191,35.33911022958309
47.76773898423743,-240.2067076512419,-32.33793784252301,41.99302893571772
40.84352060066527,-138.88736002202114,-18.07385499691891,43.29535837467414
29.122539905168537,-11.500050984608833,-0.2826206978553328,42.85393125794635
21.2987099776507,113.73915980882842,17.383566389840617,45.936991411986305
22.828183821335017,199.87760665016555,29.86065291166565,56.30812004452633
32.61186838826849,215.18092652111983,32.52568087995155,73.63244324641721
44.541713057595935,155.01546303240326,24.42209431219603,93.32516537130735
51.692616894601436,54.818704358718335,10.326482655439273,109.17774205776675
49.98700755410423,-22.8287738008987,-0.9402273888328367,117.03138382190477
40.03013724580255,-26.48482331299691,-1.9399177962960545,117.03939072164209
26.906718681614137,44.77296695646975,7.700888245573027,113.40835733783997
17.50372271539182,134.20084718404942,20.134992609447917,112.26229595256436
15.960386257557191,166.52805587996292,24.716379512722426,118.64764096198515
20.301860972125812,108.67816059860763,16.586895888340717,133.437893979738
23.60844672372949,1.5993177868503532,1.3168366229614377,151.5953064550019
19.43653406378231,-69.55577602124455,-9.132969587022751,163.88776846847898
7.1627716136869175,-46.2980685784138,-6.36588381516388,162.27137414902708
-7.0966453557437195,51.94259161927262,7.110454153852059,145.44336532619306
-14.615049726400605,141.71881790622763,19.689973009293418,119.80935708916766
-10.203432869149431,142.8810798028245,20.072849847037087,94.62895200783034
3.8039050469547715,42.580845615824565,6.296309538294421,75.24432680035356
18.60910910822499,-95.08956363714609,-12.825822081801102,59.91085172268989
24.740151121679247,-178.59485992536696,-24.558012487952244,42.449005398587026
18.527150397388333,-156.03813323896196,-21.59861521416929,18.034065105736953
4.184929339661155,-47.54069925966577,-6.645621503404666,-12.855131331364067
-9.99097973738146,77.92894894832317,10.76023671786923,-45.43801842256808
-17.70114122672196,156.03678131464906,21.65100303536202,-75.36685275579129
-18.01698702431991,165.18224706796764,22.959608325231606,-102.70457990724996
-14.308977075355783,124.35671740774335,17.26220768320464,-131.34542965103333
-10.733786985212234,64.0401798653756,8.752160744393949,-164.3876115451058
-9.329729988092666,2.1252472821595787,-0.09070520916267492,-199.85289017805417
-9.565924691056313,-56.58983820729286,-8.551718329936726,-230.60202719864802
-10.22546536719491,-106.00919192959195,-15.697034428659395,-248.08661818941877
-11.592082832434912,-131.57069049087818,-19.444037398749693,-246.55843843703033
-15.47843422114401,-120.86574207517198,-18.091762783405308,-225.32177284858733
-22.903872809433963,-80.00016287791206,-12.567002376358014,-189.03962057171287
-32.19273765379713,-34.9819703165755,-6.53412039342343,-146.50403014893703
-39.99188768419972,-12.584804520171543,-3.687839276937265,-107.42139341106306
-44.06506664694196,-17.78195934982433,-4.636846176247671,-77.72339329412854
-44.47213214351502,-30.459173576496415,-6.487096198000836,-56.38005899719363
-42.014001121838426,-26.51095591893099,-5.806166704404226,-36.84828067723509
-36.466465614172726,-4.6589022821585395,-2.4007801193768916,-12.64197581142487
-27.156888031143808,7.33951672771363,-0.2372501793278743,17.38477734149717
-15.033437354467246,-23.214583069166927,-4.06923404095216,48.36912811035167
-3.2887378533178273,-98.38955929676017,-14.344808579813414,73.72593511362211
4.5922648189545745,-176.27602168851118,-25.19252703515701,90.56005253367393
7.426997682086423,-197.11588498921165,-28.062014236040678,101.47282264623989
7.019137853271759,-129.81436663105288,-18.38996318162054,111.13214174863936
6.39722626394093,1.4614640986695107,0.4863746733775659,120.74980967167899
7.279697102279082,134.1499015233408,19.63870419238953,125.85716117545354
9.042343322760559,212.30572246249687,30.98090700621056,119.87684002878323
10.202251031426965,221.08018806800902,32.30437741458551,100.3551486574184
10.968888256333127,184.51213919668976,27.08035960112044,72.05695965590553
13.758746410895878,134.785772084713,20.057144197408668,44.14728284302136
20.230916446059364,85.01596133746378,13.20082591021709,24.01250586117009
27.678825615808215,29.85756940706579,5.612679044055191,12.70746008667891
29.51790067774299,-32.41517609841397,-3.267548392297429,5.162347460060161
20.7132130899609,-84.47391320423858,-11.181654577556067,-5.363604014498598
3.1545500046404076,-99.70371734468095,-14.20571455677045,-21.839706955174183
-14.65452386619769,-67.01399162270802,-10.339049742665544,-40.9068626227368
-23.647354763853425,-4.753133115761508,-1.7953660732960348,-55.18005777216762
-20.649130014099704,50.44742565037514,6.29865046424551,-58.726820642840714
-10.088763257507237,70.14621428893464,9.63598245913459,-51.3144136361573
-0.19766430078081984,53.256242137913496,7.67013469092221,-38.0092868799711
3.0655219110154226,22.33440756787399,3.3683391736497126,-24.844277813145908
-0.08072413922894073,1.1790077998401618,0.16935976466523195,-14.525961729572035
-4.220633571540528,-5.769395679483661,-1.0302515789309936,-5.485421752928366
-3.5579903945574904,-14.001187528800008,-2.18702727423965,5.721029424885336
3.622853681529366,-41.20892723166622,-5.768224683924083,21.041520056129936
14.399825395538787,-89.84176360506892,-12.265088927112888,38.9495429277923
24.11736097536574,-144.4535319764339,-19.673011096209912,54.934119799664764
29.469531637489965,-181.36446516032333,-24.737261495992257,64.14614407824553
29.630389634406573,-179.88574177108148,-24.516730874860652,64.56850096282578
25.95756355974903,-130.00875735941236,-17.50585714035873,58.43556281221276
21.308868359627354,-37.478474771732344,-4.397477755994546,50.72343335844373
18.855535898149256,74.60709524195552,11.631170066783683,45.85094145533327
20.299268196300524,171.36933551228407,25.636970240952284,45.02280085783108
24.700807977711378,219.55531819847522,32.78633168416817,45.76867257273811
29.191896406502057,203.2218776168696,30.647669527546874,43.57608992487467
31.08420818538575,132.8082592060684,20.597732787126816,34.654959014087986
29.611303936274606,41.19384916084835,7.3359472963902,18.541574610518627
26.14862636282096,-32.176063591345894,-3.3917431506009206,-1.0892154639941058
22.991036145742296,-60.3682631004282,-7.598353861822241,-18.4716032086214
21.378337001598865,-40.750279912309104,-4.846740685799455,-29.61443500614069
19.921867420283316,6.305834989888603,1.8629747742741836,-35.02825066687523
15.023916503919716,51.00161807481962,8.068868020493285,-39.00047598818976
3.8678633434816243,72.99455091906354,10.708139779578632,-45.98539111777112
-12.133268900345568,73.4907586489693,10.021890514128943,-57.01063818337389
-26.97276942210225,70.05830246180638,8.825152026448098,-68.79245420587735
-33.860551892484864,76.7154683282105,9.45841389022132,-75.99584697527284
-30.114429214733164,86.82945315771967,11.092862030868439,-74.70677314481027
-18.997792565666824,75.95326726798156,10.052146180874553,-64.47229770169349
-7.52001645385283,23.646574252803696,3.0596977148951128,-47.75136509434206
-2.5047638226513693,-64.55446270969212,-9.410517913935328,-27.95959921000423
-7.441100039290015,-154.3468533436118,-22.582795135097573,-8.127096741989961
-21.151351747740886,-202.40626895286277,-30.160442793294767,9.262748200940125
-38.53360689160235,-184.1224686679213,-28.35592165415409,22.385084227476334
-53.16844499687741,-109.05498821393391,-18.241027891732756,30.88384108130683
-60.42755737972001,-14.300930144025655,-4.93944278091998,36.32838433485104
-59.19310240499146,56.73201871254472,5.3492720545659145,40.918873628252314
-51.621043299657764,74.31382892716937,8.240456141411945,45.082384353417076
-41.86791847822075,31.96070508468842,2.6032845443190533,46.4344704783252
-34.444682640051916,-52.748824691831395,-9.243887622212625,41.567778331017685
-32.15250150415256,-142.6370823037055,-22.079043115106284,29.279328720765033
-34.31984177685306,-192.82044285372686,-29.406194436633644,12.441392409269847
-36.99196505270983,-172.25670051205233,-26.567700243583783,-2.9916244859017813
-35.5193828499151,-86.10657221526466,-14.087322112612009,-11.16042440015852
-27.730314723054924,20.455484909826794,1.6309590180328337,-9.768631035793373
-15.472266829357716,88.94029613567348,12.075657188177315,-1.8299531805779266
-3.828978961316463,90.50846565036899,12.853009805653047,5.652082926576602
1.5253038806045034,49.62349089013935,7.21857920769669,5.771922064285841
-2.057714934053018,23.17954177235951,3.2417488712063633,-3.8184929583539633
-11.56642708964664,49.08521060518061,6.524811330459074,-19.200056945038916
-19.368385061175225,109.45141156699238,14.85197584973134,-32.576825963554704
-18.381846631112587,143.09622052349195,19.74589694077929,-37.15503008147711
-7.605832633068453,98.10331552859766,13.77604591599234,-31.227010929816455
7.019018152762154,-20.457036898386683,-2.6085987391414265,-18.902392566064794
17.40271669026798,-147.99438524527662,-20.487594921140897,-7.235241913348707
19.517916937169716,-205.225144182007,-28.631488219471457,-1.8778412465644876
15.870274851850844,-154.33631141488104,-21.474514235069908,-4.414506787581463
12.739470211302757,-22.88410190185794,-2.6877106785977354,-13.154176939120484
14.892243368212053,120.26637846782943,18.036039855471202,-26.010039543762264
21.943213944488253,213.62537712317328,31.821627759044265,-42.07571741528365
29.062074515194702,236.54264876690718,35.46493198395649,-60.131766907203264
31.478304439656032,206.00661326379483,31.185237979112415,-76.0997022347078
29.019142650169748,148.889205522602,22.843184980327436,-83.04704767238661
26.41603463095417,79.57556048444519,12.734102082035854,-74.84793392335168
28.789166572473516,1.6618824250021635,1.6190921493352677,-50.84109621808557
36.661203315041,-74.72259121905817,-9.016542259566233,-17.554549009128454
45.58006136257695,-124.6615330826749,-15.79309941215136,14.467102406555236
50.59406671879602,-122.86192130011011,-15.300946433231736,37.20624821410179
50.79942381864526,-67.37267728757297,-7.302009676189613,50.679366869642884
49.65070041634797,13.447503134352969,4.281393166959265,62.864473398354136
51.52941853282492,80.12324810481829,13.969455830512013,83.27822979524198
58.32983003137257,109.67433228164417,18.541572119501875,114.8737887403964
68.74069623337287,106.42014183925407,18.559132638649555,150.95800754953953
79.96538008050294,88.94225536445067,16.56836321749902,179.76983072637947
89.91308691757415,68.68046054884421,14.119634546468276,192.70945401686794
97.98226202167034,40.91337386066868,10.504441788048222,189.281028998669
103.96402820031784,-4.833512676311059,4.20287145875952,175.10890754539784
106.59968988629294,-66.39283524572397,-4.533936452576284,155.46822537240706
103.96209182375887,-121.34724496009727,-12.568671843973721,130.2417306976397
95.62355534643285,-139.23022433605567,-15.532328299565053,94.58627393812432
83.8225547389869,-104.4459997251401,-11.071327401675518,44.6155573185057
71.53588680100901,-30.759361657569315,-1.027474050959927,-16.859060788754974
59.12162426628686,45.067306116636736,9.318862445704859,-79.66493037157903
43.124571610990806,86.24381402214235,14.501662606482851,-131.65151323371288
18.520000607121215,78.833508492073,12.273243482798732,-165.98184130064809
-17.61220934008835,38.2194016102022,4.710999870123146,-184.68803815173018
-63.603907824443645,-5.111431151849682,-3.7126645484667016,-196.2855999972993
-113.09273344134458,-29.28670524187531,-9.542952905836064,-210.018851757241
-157.23199086651337,-35.74526944920819,-12.565616261002024,-230.8149035672714
-188.27353118058187,-44.00602656651049,-15.22427279585658,-256.9975281753326
-202.63014684059357,-72.3352711194038,-19.981243100190714,-280.80523766800366
-201.57899747360952,-121.14291543319962,-26.95873887517626,-291.54512759527637
-189.5392319901066,-172.15161233258033,-33.73613197385959,-280.83375914756124
-171.6705864769992,-202.6352721516039,-37.28554750455146,-247.4551631191403
-152.39379130776155,-202.2780188528485,-36.329625384619426,-198.18572463568867
-134.8493531108054,-178.928800235622,-32.14573295058579,-143.18831250172605
-120.48152433897296,-149.2214257676059,-27.196794835734096,-89.01889259861842
-108.68704849970527,-123.28580883149127,-22.913419679937988,-34.71194821413007
-97.35263627233417,-97.9860863466102,-18.744917006137978,25.711669545168217
-84.55855185712485,-64.42508027312392,-13.319463650318472,96.05309870372419
-70.2841900200193,-21.012685784987767,-6.406002464129046,171.7995157916963
-56.54671635285728,21.68728625829443,0.38099918420497747,240.395592942644
-45.74016269071474,49.00506749642825,4.817986720330561,288.3615364104389
-38.59280062338051,55.041527102526246,6.022012374135777,309.98606586307676
-33.44256671274796,48.58621569600199,5.336735565060376,310.8701853864994
-27.360157894418368,47.201988909367344,5.428002679838605,303.81836886708504
-18.211253383233707,64.42194573955642,8.343753374542166,300.403103432903
-6.1180923025362,99.97810027365608,14.038801726866469,303.9728961051525
6.723296216719492,140.31173143834604,20.457376413253755,308.1540102070232
17.66863369624103,168.57609173686598,25.05000105663819,301.5021313246129
25.400661751891313,176.0074383930611,26.493757531987765,275.66082936721955
30.526999202638176,166.02241733699253,25.309328907766297,231.91662758977822
34.73983015526065,149.12073252448738,23.086887532147063,181.19184755489195
39.44465096676959,134.22320867032636,21.175019419276097,136.78612424192124
44.99104691921372,123.67974027721056,19.92731007953789,105.09897955116384
50.89238517208872,114.53216530072677,18.895630037923134,81.54218896526672
56.558789119405986,103.11382383314576,17.526549503048095,54.42192018619306
61.83034606949406,88.47210406919905,15.677755301903554,13.01967945719036
66.98366654323152,72.48320236505083,13.633460218525407,-46.25264078018372
72.3893423910597,57.72352341688644,11.78128084573827,-118.74922244791307
78.19634176295891,45.461059233244825,10.30863459720738,-194.60685108176378
84.27022399734118,35.22531717914318,9.138957277244955,-263.4658000691449
90.34745345689947,25.750569898960208,8.075934428673191,-318.939345492496
96.2224460508057,16.1516791088152,6.982332745297843,-361.132876462251
101.82204406524441,6.411890022108749,5.853539303752887,-395.53397191493207
107.15274585999232,-2.925594556216086,4.769446295911321,-427.92094110080427
112.2030596644935,-11.360522164011037,3.801442631242655,-457.7855722495218
116.888341340922,-18.794478792786922,2.95731888638136,-474.9705257965448
121.0656556184208,-25.471783832703807,2.191288475010544,-463.1171406503145
124.58560489019305,-31.692577652521607,1.4499140000304143,-408.86055553664806
127.3302114665406,-37.58866025857186,0.7082913663311409,-310.84719528413507
129.2107800835163,-43.105613380158836,-0.026916305298397385,-182.14436886398892
130.13781187707838,-48.130355121135516,-0.7385850993902344,-44.63068069794405
129.9959715816395,-52.61187665331404,-1.4197728735187551,79.87359505529041
128.64875567823262,-56.579070325222865,-2.077481088199684,175.69348846076204
125.96944055639426,-60.07752494118103,-2.7224821799280545,235.02533968667038
121.86940310756023,-63.11581187890132,-3.360277472456624,258.10941277942857
116.2928579668464,-65.68277220186401,-3.993913915717915,253.55990481566272
109.17393752780163,-67.81024660194439,-4.634587415726067,236.33907269220663
100.3906292326916,-69.59653507806304,-5.305577669769649,220.7373014719439
89.76730190985292,-71.13506685349233,-6.029805494128953,211.56497863507437
77.14784512856502,-72.3932737643296,-6.808291595570796,201.4879298025039
62.4947198754089,-73.16931763429423,-7.6110108283999525,178.73745209240099
45.91819378207152,-73.2242029268392,-8.397447640111736,139.64673397570968
27.567269444584962,-72.53216001131347,-9.159256796924561,94.7329692552064
7.430256342487743,-71.42659549594462,-9.94920087909062,61.99055520858574
-14.781591479599888,-70.41837526369189,-10.857167983358295,52.54052599913037
-39.49251727985431,-69.71090464145992,-11.931377710680922,61.07207956728406
-66.87905671842432,-68.78806541557589,-13.10172538965802,69.72434194667873
-96.53832517918289,-66.57375865951903,-14.1903458092301,62.469171989754905
-127.60366179119691,-62.2979626953273,-15.044848605468237,38.00588091539707
-159.42315913759575,-56.49399554356558,-15.714389065552497,10.585051344146484
-192.35461171505702,-51.09304451366142,-16.49836202527738,-1.5697754920397353
-227.85600597988645,-48.01919508313513,-17.744994106790383,9.359327431847529
-267.38238518813614,-47.02479316846537,-19.485751614823524,34.77921284843383
-310.65844493755174,-44.75181375303755,-21.219550074872366,56.05102846828445
-354.909801667743,-36.730121532266004,-22.16712532405781,57.733614492956626
-396.4605312123515,-21.70273299037323,-21.972293514785544,37.77744606150459
-434.2791109241269,-4.75610958143838,-21.32142374078573,8.049376312723444
-472.6645137716039,4.867936236824338,-21.753993331787004,-13.895922446427123
-519.5577148735259,1.7714296941258112,-24.427753720721743,-15.369967460940847
-579.4996030645364,-7.438861365536941,-28.607181059101645,4.980661986222097
-644.8894082613841,-4.700192432707978,-31.32719657910069,37.30436003767638
-692.1087280012579,26.201034966249647,-29.126657154474536,66.00895360447345
-686.8682372169253,81.35553247185223,-20.93625315015221,77.58772506772173
-596.8977632714107,130.7501640533418,-9.544490874813823,67.33532971189027
-405.6318551148922,137.24821370624906,0.4853398955289127,41.503183713749905
-121.95399459280999,92.42871100007268,7.515208374627992,13.140475642605502
215.65159133721204,39.1554887877558,15.887705600428312,-6.212562255351608
543.5366669874345,51.10556267775931,33.18984431162396,-13.366161795535831
790.9441089272407,171.9328218641276,62.34860601985016,-14.077326355569422
908.942321483819,359.70691465096854,95.00183589613788,-17.71130193725996
893.608184484409,493.7417267131463,113.58181597497035,-30.875572400356816
785.4361991937585,457.09777709530175,103.16966680284393,-54.6782276145163
644.4230494060504,236.7873054546169,64.74472831094867,-86.13848977916236
519.0638792736651,-47.838861072057576,17.80076164869876,-121.04056920685694
429.15866463185256,-226.06806892282336,-12.133931735704419,-155.80322162811197
368.6670829045831,-205.04747480441847,-11.973015258526617,-187.90601410846193
320.68940811166044,-36.71756081770721,9.998910336258028,-215.42250364811537
272.07457844258334,132.8214462376733,32.11315040252068,-236.22568610951194
219.69284950357897,180.59020634323244,36.50720597083073,-247.56623452550147
168.0713680782356,88.80641545703816,20.834291106697616,-246.6833873409295
123.2460612504379,-64.915912948242,-3.440103854564644,-232.1780277854195
88.07364134238198,-182.23539408005803,-22.0155771017613,-204.9425149235815
61.31168569314995,-213.90904549053732,-27.857850737190777,-167.85326714851723
39.57735996630478,-176.88412732675792,-23.567755403153953,-124.68011949547505
19.889908392672226,-122.06761118511777,-16.6183858931562,-79.06092022857231
1.015909126270433,-90.05410075146213,-12.914705336932949,-33.69249585914984
-16.758561714602767,-88.94454346628493,-13.609701940634903,10.447829751281645
-32.66444504079667,-101.84958230969058,-16.234435098039203,54.37003222111899
-46.291672655158884,-108.38159913382789,-17.833363567749316,99.98314531708498
-57.76322600596126,-100.2116336408819,-17.212817386769732,147.8736443033834
-67.42974365100406,-82.1674587813981,-15.08424886061846,195.59357339386725
-75.539465170009,-63.67727919543555,-12.81621854568845,237.9311170566364
-82.16603706523942,-50.38349678863711,-11.223526446228005,268.89094865841247
-87.35946493473391,-41.89383478807067,-10.250964024040279,283.814693002139
-91.30415805745075,-34.885011360635474,-9.428119264660694,280.50962153001814
-94.31291648083503,-27.078315438364456,-8.44176791022248,259.50924732830697
-96.66942326558402,-18.64944906937269,-7.331460105918749,224.09880783157098
-98.47910116317792,-10.973241993188903,-6.301600306155123,180.18449755336675
-99.6713778059764,-4.808296842667494,-5.459866482764307,135.36302196310984
-100.14734501058449,0.28804522322019205,-4.739440576682575,96.68201302233904
-99.9387180366572,5.214487002778664,-4.013241974770228,67.82091918886104
-99.24806544662414,10.34303579012915,-3.2370618973879957,47.69557018811973
-98.34896744895406,15.280609349311788,-2.479522593468382,32.03334209096198
-97.43294725299297,19.44743277070629,-1.832339317609984,16.99965214421982
-96.52157246873638,22.78911944991641,-1.3041981200107773,1.8540748617308933
-95.50801269256714,25.911435875150094,-0.8032087268808253,-11.527109604072287
-94.29501483580984,29.524272647955534,-0.22293169707894928,-21.297121162737458
-92.92418783624687,33.71932938640875,0.4478929268770943,-27.581325787040576
-91.59900772448363,37.73301561983053,1.0900214303883453,-32.12946348470694
-90.58539964467728,40.40594236661153,1.5242353158914201,-36.69435254772383
-90.06354962741894,40.96953899751032,1.6314528799754349,-42.04853605167512
-90.03466649631746,39.54765705475535,1.4294758768333315,-48.27977573120103
-90.3391776077459,37.01897981926816,1.0524844058369123,-55.55240923572588
-90.75642902898136,34.42640947142503,0.6612872735570661,-64.34649449911548
-91.09880859611543,32.48122625499233,0.3673113790638649,-74.93889728197156
-91.23761938070199,31.526716925259162,0.2259660857753391,-86.68296919264262
-91.08243189288774,31.759422418000728,0.26948614009941463,-97.98603016818838
-90.58765639553704,33.19649911807673,0.5021657585445796,-107.37319703367702
-89.81462319214398,35.22561801075858,0.8328723284599173,-114.74723986375612
-88.9798534378881,36.2177962468976,1.0169657730814885,-121.29472665184319
-88.38427059499845,33.886171919477675,0.7109427498419462,-127.7882790814322
-88.20701835902625,26.507039836934137,-0.3422345466081805,-133.1336561737885
-88.29874968217861,14.208492800670978,-2.117545139404786,-135.07446985548404
-88.1706505776314,-0.8455637570138622,-4.280356453608845,-132.45796982080478
-87.24399251486244,-15.810897952648197,-6.393241512748947,-126.4200731942846
-85.18288269842698,-29.087809572821037,-8.209359616397181,-118.98339425589018
-82.014567027908,-41.11449313778233,-9.793024592176042,-110.55834767236323
-77.90235917406785,-53.21129885343245,-11.342648478492876,-99.0917654898045
-72.75822635247185,-65.4993433941074,-12.87213329183544,-81.83216320869946
-66.06474542450157,-75.93994683952162,-14.06342066854443,-58.07012989702345
-57.12483780045135,-81.62292832964,-14.463630147638446,-30.365901214330446
-45.569163926117554,-81.25503340505907,-13.867923225445997,-3.0941469963822184
-31.65594912548854,-76.36684336225736,-12.508312347583487,20.683813254284587
-16.01885612022498,-69.75350279269344,-10.817621996284444,41.491486984469056
0.9534596149757751,-62.638796456172244,-8.991359502898156,62.65884884672727
19.475885559399646,-53.9557440124091,-6.866226396072258,86.73434235773736
40.03623914866465,-43.07132038174284,-4.327499669763173,112.13666682690472
62.70019378228303,-32.79080664485915,-1.7748383016312372,133.38329764437032
86.83301369219838,-28.158546748853187,0.03629041278544372,145.11471593153078
111.60194111273472,-31.114917980089817,0.787034038283352,146.49258711130332
136.81089035555334,-36.60233499990088,1.1954620857620994,142.14126171360184
163.31079429406074,-35.29613599656446,2.643479577956222,138.89987445612596
192.6170981713347,-21.571279180552015,6.012299872715983,141.01138605109804
225.92337975061616,0.533249358014094,10.777177904847887,147.21897711256472
263.02388120007726,19.571063254194506,15.281044059749156,151.6300902036041
301.803118089967,26.174865839075924,18.07570182405199,147.69033642774448
338.974686835134,21.919356322764376,19.23246436118172,132.58304621843612
372.33917210670734,19.64263905221356,20.495308182312037,109.0486135879557
403.64420279976673,34.49505349839303,24.12792921300848,83.5312219604633
439.6206646694106,72.99869963609882,31.38808433985015,62.300919611945446
488.50784431538284,128.812249189438,41.75321604660016,48.27367090902546
551.9109343166333,187.6550808634281,53.24304046623442,40.00908972293805
616.4546394320801,236.17957842773816,63.30065693511788,32.67854156473728
652.6304796756987,267.49590604388607,69.53302795642512,20.229283365495156
625.3990015115564,280.59826432424825,70.13149662630902,-2.027686309711233
512.8154325597587,276.7626114016058,64.2374605791196,-35.423356441512944
321.3975323388261,257.39832499919623,52.363016317651166,-77.42701814382258
87.33989717278898,225.00958703454026,36.587334951131574,-122.53676554789621
-138.2206697126816,186.20952753342354,20.291025244997538,-163.70821587540723
-311.17133117368274,154.40487183599762,7.499472000576705,-193.93953328882895
-411.376507224345,147.69497602628792,1.7751720615077398,-208.29593307711002
-447.1631550298439,177.03085612685373,4.299612969485121,-206.02141067138072
-447.3462442572339,227.29875799190893,11.527723476887653,-191.1682760023235
-445.72180841503507,247.29758745082134,14.480602501880604,-170.49879311386061
-465.0395771809722,167.34390494952,2.0418545836144393,-149.59297987627605
-507.902028312529,-56.18582515654618,-32.19509101141738,-129.9013119068494
-559.3573807852111,-398.0068049418559,-83.87853553999085,-108.90640876139233
-599.069924055954,-758.1724397454595,-137.64738482915794,-83.13306367279928
-614.2502490334866,-1003.7657862767395,-173.749677564921,-51.63671033090386
-604.718620374832,-1034.8615554802957,-177.78359280718877,-17.36792166151507
-578.7166058198582,-837.4157026414571,-148.1167137094285,14.529913060216415
-544.8992055541617,-493.551397188262,-96.98784637822445,40.08802424472752
-506.5818443686479,-140.142160295114,-44.26879576057953,58.85347616802583
-460.8234667019974,103.78732868164109,-6.963966066664241,73.4014870975851
-401.89281066414406,195.2704322460947,9.009656311363555,86.59679046083306
-326.88918388584415,172.64320343182064,9.311461903067778,98.9215363481371
-239.86490477030105,110.81784269749008,4.539362185736033,107.86318347992982
-151.13827257069343,67.37226204451513,2.4971148848957614,109.66335227511904
-71.94347086102802,58.603777786552385,4.998782956964828,102.22370672120934
-8.508393486400998,71.38646186497085,9.857479877852027,87.25448679468359
40.052500889278484,88.03709659259282,14.567111263787181,69.88756911869115
79.17919472381288,100.47949671621745,18.221671613993998,55.45990418808588
114.35371545935347,108.59587766257818,21.064260606953994,45.736999314184644
148.0380005308942,112.95781528508824,23.294798351054926,38.06820940042141
179.7165900246132,112.09660818264453,24.67814440123132,28.611594859162157
208.28396218856258,105.24158804611946,25.050945833568477,16.604548475842495
234.29889918578937,95.1730600854022,24.839436391712233,5.373482140295924
259.8276918639013,87.2719115818521,24.915840752528112,-0.8586849018860625
286.0935434333682,85.94829195659871,25.973238522712364,-1.0185664212700056
311.76844881323234,92.34116724893819,28.11328623386009,1.8560410227022908
334.2072270964007,105.18932029559393,31.02964904384536,3.43595489908112
352.3390181059151,122.67631969875544,34.410217515580506,2.0060960743555807
367.6483854277667,141.72459406701574,37.881667256639055,0.09875813508890126
381.78849412743085,154.9690734279714,40.46062539834642,2.4638884645306325
393.3022757345729,150.84212282201668,40.41109646014676,11.836542560095248
396.9213589291442,121.90029752257418,36.41120803878148,25.822345178904243
386.2787306367146,78.07782752456548,29.590873874464346,37.64511733394402
357.97794847132553,51.5083472917808,24.418618372261992,40.5001916606812
314.17511963225235,79.62781155389968,26.389442375330596,32.147405404953396
261.7510559286419,169.50222217212655,36.847207550453234,16.100873901701664
208.18382201364432,269.7230611582846,48.74120001289705,-1.2847954166565547
157.03564634945153,284.23887952066514,48.40492192353003,-15.180094897942546
107.19623659490927,136.70051935331927,24.78857079371258,-24.695228454065106
56.92814533819965,-155.04157038813548,-19.61883260000967,-32.02684470743267
8.452832872976012,-462.129649502898,-66.15131001114757,-39.704897694787576
-32.29593243419482,-618.3805069004768,-90.59080969004533,-48.38969565880622
-60.807885371793084,-536.6999073743152,-80.17885751930832,-56.70212459633115
-78.47000361918793,-271.65143767782274,-42.84079453834488,-62.69785066818746
-91.65943256740489,26.425736834662505,-0.5337409487983164,-65.39026835572297
-106.45984321628364,223.00400179276897,27.076809436529288,-65.03196111265929
-123.78871054503826,279.54169625136785,34.39611245542275,-62.231557602931396
-138.65096296951248,244.80679968087443,28.685749250135082,-57.06575798030645
-143.9187459049658,185.18778413598596,19.846473091814065,-49.14705615888089
-136.20785254818068,126.81490366074033,11.802724058072705,-38.51039322763175
-119.84731312256773,54.51044117094052,2.1630098177304373,-26.443433376380327
-105.59237656947133,-47.465401099674395,-11.850155937880325,-15.53413393198676
-104.30690059284672,-160.88542436868187,-28.126960942443596,-8.679068565036264
-119.97978720044134,-238.06754943118713,-39.98879160183688,-7.273368965755146
-147.12937660830286,-238.5495949877616,-41.34767279461961,-9.620989657502824
-174.16021631244686,-163.37069613539867,-31.80336112841348,-11.262324362557155
-190.04976185536435,-56.648013264189444,-17.187473975770477,-7.917279027385269
-190.08832714032042,26.1812682963862,-5.261157390030995,0.8831014184031127
-177.3875958891732,55.35051632398052,-0.45866938025360365,10.901170157464858
-159.37625824479488,38.798534984383416,-1.9882048728677417,16.45897303514051
-141.7283088394949,4.319415100975187,-6.115563929850268,15.343706990046375
-124.36045977054354,-26.726038197137534,-9.760928579546265,11.04691331669863
-102.7681881341013,-50.2971374916922,-12.129842383684847,10.309320129366897
-73.3735872043045,-70.83982324513293,-13.693788421324522,17.948634128875927
-38.08757686539805,-87.16486915375371,-14.372054667636725,33.02008366527565
-4.485302373011313,-88.68951666540707,-12.9988088615649,49.12443607157759
17.964745874332817,-64.37138285838446,-8.431666720103465,58.52169821240895
22.78229010662209,-13.761585876807935,-0.9129095546640998,57.03650891682363
10.081390096085649,50.95496598180512,7.807445822285562,46.39132706256363
-12.581188820648345,112.29707725863551,15.569141002005795,32.75512762388269
-33.25480475028038,155.19795802485334,20.76826493286042,23.072794184224183
-42.06775067053632,168.640061249894,22.28594616801992,21.743559736527622
-37.4312321896253,144.5663744573178,19.037124134839054,29.072833761259517
-26.907522570418095,80.98612868774656,10.37657560955902,41.487007162072345
-21.043372451744414,-10.654052525883515,-2.5467699212819848,53.16410844916266
-24.321602319218105,-101.92030149775168,-15.849237137778578,58.76089420545632
-30.352688794937745,-155.67287338668262,-23.877382484792257,56.21503015866675
-25.7172794561175,-145.26969691714172,-22.15678109215404,47.84763501824087
-0.4452633712736988,-72.80558821204126,-10.516602815118084,38.68851188459999
42.45983123776526,28.833861449051728,6.16282673248732,32.977422928219916
86.43174905053274,114.81547549161024,20.636760411510664,31.271626718933174
111.39428241443953,154.86410199884506,27.591454233584685,30.119719040873157
107.27984503802706,146.43821579996253,26.183677309637392,24.40823624144263
80.4006045922679,105.94416464388217,19.077189768184425,10.798027864635058
48.12368598939246,49.862155680586326,9.470698829425217,-9.919152366341635
27.129200726814748,-14.863479842768585,-0.8441177242631002,-33.08085183725741
24.493912106545118,-83.81634080770544,-10.896239560477914,-52.935410882355995
36.52792893704372,-142.31365868409353,-18.74698424595736,-66.01778160471075
53.79772088166618,-164.16169971055479,-21.071723721608105,-72.67195908369682
67.77679561174467,-127.78151003960058,-15.166809613573008,-75.84779387258979
75.04965463215909,-36.588069451543916,-1.68568978151627,-78.59433025181747
76.9932356276311,76.72636700478876,14.728620281827885,-82.38134538294133
75.9367205264502,168.94495065040346,27.962076704383982,-87.04891651053971
71.70765612913327,213.45119888486403,34.1725871712805,-91.60093650311218
62.05960856661694,212.8818048301936,33.63289330915629,-94.77899988824326
46.21151310583357,187.55850732812948,29.232548756131497,-95.09195266174227
27.20655083051223,151.69376036131212,23.162791699290405,-90.70389747393061
10.322282471917356,100.30662495041908,14.95654492548865,-79.83058416424667
-0.6717613098273383,20.007989263387767,2.8643041088963495,-61.91334862254348
-5.641519927791473,-86.40375851111403,-12.704055865080921,-38.85799569772847
-7.1718214903576625,-187.2333644326632,-27.30518051039516,-14.924919202399206
-8.187455002507006,-237.45925867962865,-34.59236480843154,5.337788436937514
-10.15986768726453,-211.50113539025446,-30.950598116280144,19.766777349274957
-12.684894534779653,-124.2393972225192,-18.5042300683292,29.548647449144728
-14.239055639612003,-21.775582439754142,-3.821712798052046,37.56788721661856
-13.401307728670748,49.406805781053265,6.468864096312688,45.65342931913377
-9.482597205823247,69.42784061696831,9.537007447512497,53.188740708646094
-2.1652054205796762,49.45729152098558,7.007094909266408,58.19682083293431
8.707371638269414,15.375646970316135,2.6144332239323966,59.76714625895519
21.998837485114375,-12.461075002201865,-0.7633983702465117,59.533306175763876
34.034521345538394,-27.81100659802,-2.4027217608458358,60.765020929086305
39.95609071987659,-33.780919520169896,-2.9823981295318953,65.78843785917825
37.61031338513432,-34.67427281911443,-3.2244315095753335,73.96719074812758
29.84779639926233,-33.14260823826472,-3.374496153773516,81.89686931337783
21.966138644759116,-31.604149776717687,-3.5282233345155145,85.44198569345204
16.673149857924848,-31.998775927134872,-3.835732194520162,81.90042356702402
12.051609128545989,-32.63843558360508,-4.1449203456966925,71.0056641685465
4.450058062400406,-26.926613767049723,-3.6796153093678674,54.6931251408887
-7.146823297658847,-7.750719400759481,-1.4643492056092533,36.1511183373803
-19.54791567162109,24.791220263533294,2.6376475599210742,18.541024934967417
-27.59711532958547,58.85968167950769,7.165642498929843,3.7244807737804266
-28.263174928052155,74.68460034871012,9.416125935433174,-8.363420597126469
-23.617988842244035,56.15193998434681,6.970009646591731,-19.092170682885868
-20.158038580140698,3.164286828934024,-0.4951653466961489,-29.529311431005045
-24.218098134980316,-64.61082714541867,-10.447738562009679,-39.111310693564064
-36.889636683379756,-117.05679481188038,-18.602250402093865,-45.76633724781979
-53.05552795640034,-130.831277208735,-21.353973852279236,-47.3866479230545
-65.42652219083425,-102.82487604125109,-17.908839981850903,-43.39999084480538
-69.65832909454815,-50.438709653031445,-10.566428926046127,-35.304478085852324
-66.35443276000471,1.1934287290131707,-2.9748413324934657,-26.037138942364752
-59.56395787314935,35.1435666000149,2.236078133989859,-18.792972617883077
-54.0420953402177,49.83787510217479,4.614254550971902,-15.933589338596752
-52.899757857224486,53.7199794898518,5.228227805842233,-18.265885600118295
-56.044589631876065,54.72541974602341,5.225103239415015,-24.642253072066474
-59.98301367952381,54.208314038275624,4.965164600600268,-31.838498020916656
-59.600654755428124,47.98955486859699,4.088385308108785,-35.119524957021184
-51.18019097508515,31.38736549079759,2.0960514140812774,-30.154493441665654
-34.71518620268447,5.325652379765493,-0.8786817506441715,-15.980294254687683
-14.157135881757943,-19.314460185603057,-3.4552990689761374,3.013242627143848
4.3507216767840475,-24.270402903511208,-3.293305216458475,18.378604542934582
15.441786321095597,4.318116512619709,1.3505091142662968,22.14939790167711
17.47804598242554,62.426374822330935,9.819236615676866,11.672693516553007
13.708689124083254,125.43888402325318,18.720781475172018,-8.65409617407491
10.383951585436334,160.61083057573836,23.633660569342588,-29.77038257021615
12.945731657180579,146.03511835068866,21.6590075443393,-42.74230215605065
23.312216757028683,82.66069272691323,13.023604613534536,-43.10157658420621
39.97550081667638,-7.492475872513349,0.8277940807783066,-32.46017312206224
59.60507976763442,-93.06917606647947,-10.569087360411217,-16.75563467929303
78.13318378128258,-145.9229689493948,-17.304776759300157,-2.4754184949760023
91.35789313892813,-149.04163256720884,-17.127712164414678,6.584822985078832
96.18614343576296,-100.72023460934408,-9.939226188167966,10.145502059651538
92.04247336693504,-15.894031926336519,2.0817353096393947,10.033920209036236
80.77031589876093,78.50707897839295,15.143481653168209,8.277459191992033
64.98287781210588,155.15650287094485,25.4339168726748,6.227245450925158
46.81152702971512,197.4290882145454,30.659496451872485,4.895802287537688
28.19255489774079,201.01768311845387,30.291535225459565,5.626636572025409
11.609181721292638,167.55555627858962,24.682871491807514,10.121972772604272
-0.1591955424037778,100.5815980911684,14.47502531105872,19.5008842963603
-5.342223874717839,8.953707584142157,1.0281413750818695,32.934720276493444
-4.700753875735318,-88.83335204063131,-13.029280226008222,47.048685651285005
-2.197421672033462,-168.03709444810212,-24.320673997934744,57.11561103919407
-3.4810222857020197,-208.09241650613933,-30.151583551302043,59.736481008763526
-11.945572711619628,-201.38699214330157,-29.586873147946555,55.04011488677294
-25.21500388047552,-153.8706655616136,-23.37139651619132,46.354277231983936
-36.19678202618062,-79.21802001451034,-13.138641904178963,37.49208393698527
-38.82933611326545,6.868798786753888,-0.8626202282270155,30.117239005851935
-33.0964479094381,88.08807972720133,11.109639971402085,23.394514292034497
-24.175417123721523,146.53221542523656,19.95323915099915,15.633785286923045
-17.042626201002577,164.1716448465169,22.83509035945031,5.869165702234021
-12.550749561833696,129.38961721278167,18.041502836233132,-6.00884567969936
-8.485149982131428,45.97849383900659,6.223956981787383,-20.11183764763428
-3.330890157807571,-61.9305370255638,-9.069730473923961,-37.018309198031595
1.5639933611605759,-155.58514097572592,-22.321902778032083,-57.03525688155389
3.0231390617260785,-198.81394194394184,-28.473912755580272,-78.77914636918857
-1.320049722512095,-177.59936874456884,-25.62005880918282,-98.58868537518497
-11.135690719533539,-107.55023417824921,-15.993911286855319,-111.94221720923794
-23.575765461772377,-22.706651877674492,-4.363672677936185,-116.23521060691716
-35.202571467588974,44.90912485674648,4.821958814120858,-112.50126911190496
-43.86261092174027,78.38178870653476,9.229719257926687,-104.11864888300661
-48.749934796809924,74.66704787017595,8.459950827727003,-93.35809508146588
-49.14295356084948,36.93935686764368,3.0038862583658874,-79.01092845175728
-44.22021672195559,-28.022609832202825,-6.123911510359626,-57.53288100062454
-34.84572740679731,-105.69496882116128,-16.873073019959442,-26.754873743495715
-24.81331672951867,-171.74516119263734,-25.9186881995174,11.316501499171174
-18.849378225790044,-200.33406237153997,-29.762353094438147,51.200690360886405
-18.734605841445887,-179.54580905652944,-26.771103774608612,87.3584804287199
-21.781023653864136,-120.30257152745276,-18.38973671526834,117.0169043034504
-23.360915037211047,-48.65281107804079,-8.150160750898507,139.91599289280543
-20.59845686779582,12.749199315577705,0.8213571567490215,155.7741346765993
-13.657316092279649,56.937570003756335,7.514177863940969,162.6168736612876
-4.331088500448162,88.37952135468062,12.487066549075124,158.04870618017858
5.929421345732977,108.95734083003573,15.942170839942511,142.2021232031258
16.898903212477997,109.94162602685256,16.610529335454103,119.07146902899218
28.98663814504068,79.00588101012134,12.734815679346484,94.43536355858471
41.577848016842545,16.891972395767993,4.391801134285326,72.04116028920794
51.77818200369673,-51.986362684741415,-5.0395601264908,51.54419899082667
55.52093678543477,-88.55199339133499,-10.123397713320594,30.02400669400521
50.906060975448376,-65.2209627409358,-6.976523651050792,5.535605357172456
40.54248764228255,11.433474235072337,3.57793741267944,-20.557035398461327
29.995573434071513,103.02422713905482,16.274487211113772,-44.36836011863782
23.626465296736825,166.7739652297462,25.158170475739887,-62.45232247450834
21.948832126499155,184.61665649488555,27.651140510484215,-74.21326093019645
22.59291098147213,169.45846873074544,25.50018790235654,-81.6599338002661
23.085976103945814,146.10166636423259,22.160649716053236,-86.80799227414349
22.616989809688818,127.10755826447301,19.403150301433854,-89.2719798518232
21.850147405960914,106.10170348220144,16.34053704745604,-86.56660729006221
21.677264268775218,72.11217078513583,11.43447648156821,-77.05260215502433
22.21371319886362,27.798904815965166,5.07402532079315,-62.67999555508867
22.925306299074546,-7.561689574630687,0.011464351295363776,-48.665114782380606
23.72256465906273,-12.089845809178792,-0.6048389184439875,-40.160638688388595
25.55018176762762,22.5157862467214,4.466059178345219,-38.818154295606206
29.176307973169703,86.14334821666694,13.803616619443286,-42.08679276760678
33.21527217561193,156.75457325420965,24.166709257010005,-45.51719825226575
34.12198328948442,210.02224473566903,31.882218805968787,-45.928262222307204
29.032963378312765,226.73566388415242,34.04703182552909,-43.01147803048954
18.711929367038955,197.43240601951857,29.33494795479032,-38.56721738812735
7.320626285320392,124.5225037164814,18.29127132827119,-34.46892061246942
-0.7285102508465043,21.807807100960794,3.1136790284201847,-31.117724350282717
-3.5519649037602337,-88.21135904541879,-12.867817287706961,-27.291668804933998
-2.087566118081057,-179.4802817917435,-25.94548032169918,-21.033353022957915
1.1287098250105738,-230.78619153364386,-33.18480439551878,-10.839944472643616
3.034230544442457,-235.03296002248211,-33.709208000336,3.2022510750522315
0.9224191429780835,-202.76480358729495,-29.16545565326533,18.69492600599505
-6.334397695370468,-155.35682564881608,-22.68488553510108,31.44758145724884
-17.406808518959682,-111.79316148079086,-16.93780703700493,37.69004805087494
-29.017900169022838,-78.99487931960122,-12.765231497379204,36.75954866179826
-37.50813557252218,-52.91219177323231,-9.41073406666963,31.928497622130248
-40.33461574811644,-28.816529140577323,-6.073601710069122,28.287304018502926
-37.17369158842088,-11.33230561534554,-3.4053152477965924,29.22384429427526
-30.58739125656017,-13.853534344995527,-3.456692227608791,34.29519896200459
-25.285228526432658,-45.67938287620661,-7.790079437980078,39.99695082540773
-25.386933503353475,-97.75014213221732,-15.295446308618196,42.56727809302586
-31.572217200299956,-141.85324938545514,-21.94120649112669,40.6015872854444
-41.01468815353592,-147.56235345077633,-23.211013004348906,35.65990779191833
-50.19872317616827,-104.92223091578562,-17.504608513096358,30.629764454244807
-57.56384072674936,-34.20246920560162,-7.667749339472906,27.234893158722066
-63.63979303789949,26.59481014419241,0.8009979964444598,24.67986498677279
-69.4402429568217,47.74371057979583,3.5725168923626636,20.498809822412337
-75.04350008516629,26.90107589583882,0.30602260737373227,12.846395036295583
-79.11867487530631,-13.445439168987605,-5.696395537750298,2.255571055561482
-79.41085346641283,-45.84695339253094,-10.37466975045761,-8.551999728895316
-74.25416970840342,-56.277826941959354,-11.630220648457506,-16.411904482927664
-64.33441129681579,-46.93069509592177,-9.811888251452798,-19.423084699380084
-52.89858949558305,-26.888022662784067,-6.382157445329634,-17.476372533341596
-43.7451608955938,-4.327511485562414,-2.6991099399154233,-11.70315409405647
-38.75313253950422,13.02884105366639,0.03608609348151877,-3.5585909400436764
-37.01660959595629,15.340669145005599,0.44938272644357,5.874340006699734
-35.53680577467038,-5.646625749420057,-2.505542953089051,16.033602209838474
-30.250941254444296,-47.87221867380015,-8.33872705632638,26.509075463220285
-17.27899289434559,-94.78624261829965,-14.481936179414461,36.69781141487889
5.066468209569669,-122.17376151967107,-17.36708771464231,45.98886305765954
34.423915473688105,-112.06721347322328,-14.518387509555454,54.08619699541354
64.73063636540552,-63.4916163495329,-6.083377070988504,60.583482963137236
89.21190679131037,7.421707843954422,5.29296037301159,63.909765684175014
103.87389599854787,77.22885101500185,16.044850105892863,61.05896641511528
109.06600244953718,127.4572380494004,23.528905180628396,49.097799879704354
108.5654686945026,151.41344508488893,26.96061976628711,27.603275766719374
107.13475991583248,152.84944274336092,27.10586906662714,0.10149972492474398
107.77772881136742,140.03340709645613,25.29672066738901,-26.72859933237096
110.10817824377048,120.74025614540346,22.633043797442046,-45.8793914843254
111.19386449032238,100.83414741999667,19.819261405030304,-53.53002867573357
108.56541115800559,85.10859044048662,17.42884386475916,-51.29319119506132
102.72886927045005,77.5266379027902,16.058122084534602,-45.504521774634604
96.68492122531907,79.70411298194114,16.08413252313472,-43.59361822904843
93.11784303252749,89.22983384764169,17.288118925190183,-49.830027533035164
92.24596481470417,100.19778210237187,18.829573810465227,-63.283032762138035
92.02723065302838,106.29113205787132,19.700471908110945,-78.95100738029399
89.71324581832563,104.2292642342534,19.29628306058165,-90.71795268433146
83.1250056628695,95.06840152418819,17.664581812473493,-94.18609656579169
71.20723840906784,82.74242144005362,15.321571234440764,-88.2088612244427
54.016172407369474,71.23207763901837,12.843731782609252,-74.70675901604162
32.13490283136118,62.32354453071085,10.51680073281993,-56.95936688198162
5.964620678824053,55.17605340467839,8.239335246611633,-37.5192873458135
-24.08565154296015,47.696266521548495,5.729493642695542,-17.39573287320789
-56.37360027193072,38.66833754902464,2.890288871003374,2.972446801996654
-87.19877514130981,29.140447766955393,0.0488094862920433,22.33588889920961
-111.67845006057141,21.986305150936488,-2.1485462348346767,38.596116959194454
-125.78697609207734,19.720252719333256,-3.1479829353956705,50.16541361911446
-128.03614064842245,21.92988631259125,-2.938209504759441,57.13141179622971
-120.08134188377048,24.274173858024973,-2.2234630211440876,60.90233245709505
-106.30860494965684,20.288404654870156,-2.143543259760137,62.61814230047494
-92.25653792199216,5.34468563583893,-3.6280670672948303,61.76853324617489
-82.07564479731019,-19.821544642898072,-6.767840547807758,56.312256999243274
-76.63878714352748,-48.87440792722722,-10.691343135352424,44.46512190755887
-74.08577353007979,-73.65651010731852,-14.135411542563881,26.919627359479
-72.25493313605348,-89.63372980074999,-16.34516810272111,7.538534244214035
-70.3763913810935,-99.17095670819299,-17.6258611466491,-8.497481433831359
-68.55345879042027,-110.14077185709183,-19.11709824445564,-17.822034207922943
-66.39095301266246,-130.50629282089437,-21.94702677286034,-20.57229530030685
-62.79189732497485,-162.3254038591899,-26.359359400353327,-19.19685374669522
-56.984199718483126,-199.23956748851555,-31.401067047241522,-15.848954720234005
-49.33636677850416,-229.24813766699484,-35.36104040132265,-11.0572797742196
-41.123846549425274,-240.71677195833476,-36.62420457224089,-4.5696171649911355
-33.58430573622137,-227.1774307395073,-34.317644610896615,3.1531430093713504
-26.933139657904622,-187.98137387841476,-28.35778614841875,10.527114946505602
-20.011108806385312,-126.21713819412949,-19.13395265407352,15.622329502266474
-11.18201500437718,-48.07614460350847,-7.459871235977098,17.13917410035789
-0.10680579195964712,34.47249728516275,4.956648462589006,14.931936242455834
11.424853536054599,101.19572565835033,15.116084379389815,10.064105266830467
20.931283896862986,127.04215822635398,19.291830495000017,4.474121815261108
27.538898547369673,93.40441815739833,14.761803376714209,0.26369335296877705
32.376969109914064,2.4536513987041744,1.8920516166902315,-1.1658357407844582
36.72867590212835,-114.8675935173698,-14.799725215891279,0.33708180036314406
40.59683508785135,-206.4676635201582,-27.810218602327165,3.7890940540463336
43.45994358126692,-223.8635721767184,-30.18069915120243,7.765418856694558
45.64290561166008,-151.27824692028716,-19.62304651555707,11.170305812719661
48.07199916162059,-17.40373135687831,-0.22575561971533326,13.528337478473972
50.91221666518663,121.62918543532358,19.93433832957616,14.657285156828834
53.152626978858855,215.93448226328397,33.62403152164065,14.166052132071277
53.50937866861408,246.8100334460745,38.08874265577394,11.393465642364351
51.28915421194251,227.8003118222954,35.24648813154648,5.907912629042176
46.57785128030205,187.5960510372551,29.233706687514143,-1.9853229647423019
40.255083612347654,151.16648901924262,23.6883775200501,-11.326477952580987
33.83639328321764,130.53155236234278,20.413539965023222,-21.06865958977542
28.607049659746625,125.5791351064794,19.453938220913496,-30.448360544192802
24.56269298340419,129.05508931943024,19.764372150515925,-38.81092233870795
20.53051371807386,131.1253110148199,19.872483313792692,-45.33028036019251
15.592982115507652,123.08244820285854,18.480331905192863,-49.176380902033856
10.253211730647989,100.98673726221865,15.044278343944061,-49.97707538558006
6.188185725764975,67.8264986510875,10.074470528887032,-47.941430276473476
5.107465043735905,31.851553296452824,4.840467994429432,-43.41223678885904
7.731366238797848,1.6830648484697308,0.6182109827226251,-36.29482869758115
13.256409390473955,-17.92747779822483,-1.9462478644804566,-25.96868617265949
19.53246289246704,-26.772876221490893,-2.925343223556272,-11.935149404214297
24.306900137168853,-27.396144852974075,-2.7922165802995953,5.074335339049235
26.94816718696146,-23.762502877880777,-2.1473735479477787,22.364457183097695
28.92533164205404,-21.007192895480056,-1.659723790889612,35.91224241040494
32.212484609311325,-24.23425592915738,-1.969868340905969,42.47432364580197
37.163173356024025,-35.525403571112435,-3.360773561548794,41.743851130703185
42.07388329920404,-51.796867361491344,-5.469909889796036,36.70928598374326
44.61539408664272,-66.70732382916673,-7.495632719626552,31.873112346229092
43.36861179841738,-75.84552875155225,-8.870837571342394,30.826623239376456
38.19542800629781,-80.36070958536894,-9.767896871829386,34.786411762489394
29.787729477495965,-84.99941066251765,-10.837284388888893,42.40548382682598
19.18837002956939,-91.7747424076111,-12.318652465435923,50.448432605149506
7.537784896221006,-95.20867315264064,-13.36793878713903,55.24000025762693
-3.9125042531793515,-84.68834331455506,-12.396592120965515,54.72495499392505
-13.578991587540406,-53.62019835143247,-8.379931982058732,49.98651717177207
-19.819774586379722,-8.139888857532913,-2.1245379904216737,44.69662354255882
-22.418098015689065,33.5132751913656,3.7519942384759903,42.389127605714386
-24.208269359902616,53.16922584282725,6.497800614596637,43.46894105278195
-30.266257942415585,47.88989741071002,5.44934616338003,44.3817141339296
-43.99421134065642,34.31397070649443,2.8427465913156666,39.803292664507275
-63.41620105723145,35.58988580699243,2.1068197105575703,26.37747467295199
-81.76718657142722,60.1740473586583,4.780739974931091,5.258313486568193
-92.21194828135626,92.1867571016345,8.900882687931105,-18.452276221653825
-92.2798213913278,105.56240402876786,10.828945464486871,-38.855916421264304
-84.41572398913632,92.22324935287622,9.284484409616068,-52.471682850018595
-73.25863257209271,77.35484930462296,7.674633383982639,-59.243035893270715
-62.622541000681046,101.13795106223066,11.606036413974309,-61.267178892114245
-54.15811141042186,175.12011341737585,22.66406732688747,-60.98659229650709
-47.82898218899288,250.21733065890587,33.78115011146529,-60.293575801379674
-43.26685792846306,234.30514766426126,31.706063980610185,-60.446428330576154
-40.54597179337884,60.87215383211483,6.855530054308414,-61.97481526059535
-39.45046146044914,-240.30743436911982,-36.47180879875482,-64.44900533680479
-38.30007580615647,-537.0957605833332,-79.16410482416396,-66.6926798342525
-34.514454471156895,-674.4079373568396,-98.76158549975459,-67.59033440993161
-26.95780332062767,-581.0532106047656,-84.95650664892928,-66.79882731824651
-17.18643987930493,-312.7579776817391,-45.84919526478402,-64.71212560733291
-7.685218415601054,2.325145901638642,-0.015874786323661814,-61.84507122808831
0.7458315952032433,255.9220812972882,36.9103554510008,-58.25829346190362
9.004484764167922,402.55570836466194,58.421788437465395,-53.3802453815325
17.23857790579004,432.01881889631414,63.055040108727674,-46.23086762764803
23.43929905508979,330.477384186256,48.72189360303596,-35.928683578932215
25.06570989188551,92.31783001237294,14.493015019208736,-22.217089261425333
21.720908437632193,-228.3546809516706,-31.857359242186988,-5.680902259563573
15.846767474855408,-499.4880245397887,-71.19296157178704,12.361842073384109
11.024336517765695,-574.3858442730925,-82.21400795780521,30.041682127342593
9.901817769548515,-396.26572347197566,-56.61560907449789,45.2595291719663
13.449180264827989,-49.89062286941835,-6.56003417226351,56.49411189634264
21.43995976392464,290.2791306209563,42.81380457036082,63.79157988021293
33.036557078632086,471.4947995366184,69.46478090523824,68.80507964135262
