TP9,AF7,AF8,TP10
-7.869817631883002,-8.615773662259437,-2.0076985689003313,-13.969199330593447
-21.442822747273112,-40.612699233934784,6.688217930077845,17.55205120018461
-30.16934446041183,-54.38693451779479,9.708847979113623,37.16258143017338
-32.84239922718104,-43.94465430981062,4.967171441967228,40.584540409525985
-31.830025553082525,-17.9602236131022,-4.939976836596159,32.76580393898399
-29.94207817981652,8.281296008570163,-14.773142465535983,22.62898850047345
-27.76245144836428,23.62676924373397,-20.062378422210895,16.266130962939915
-24.016181406895726,25.956595726273008,-19.386739564593984,14.060226597270916
-17.97734203842662,19.8352051107553,-14.442274124997796,12.604404510513517
-11.076631318460302,11.707495411744615,-8.653844334720997,8.294451497000722
-6.196682361288646,6.796015902686383,-5.452536355424763,-0.3065285079503137
-5.475235025847628,7.969842037481021,-6.757927533232545,-11.836451048502767
-8.484445304852018,15.790281944530184,-12.203722847638693,-22.767533265543825
-12.210202329952612,29.75028405258733,-19.77532375725541,-29.223684604096082
-13.010067294018475,49.41397309305976,-27.40328226240381,-29.371812411567582
-9.2068837990836,72.97276214964988,-33.77597486789871,-24.580911955636907
-2.1988936995465362,94.23068230361923,-37.61689027602778,-18.12536632366822
4.891842956538889,103.31638716520352,-37.03909886243429,-12.612491912223852
9.668518221958422,93.34926175989364,-30.691348557788803,-8.52968514026074
11.687142691597918,67.12971876039224,-19.70329320386936,-4.831861466591183
11.753272796420363,36.20159055530943,-7.832124367004658,-0.464549988545958
10.677438169208711,12.663746809188162,0.853477888255465,4.585280581632591
8.952752005384859,1.606917986961133,4.600194311129812,9.249080924927698
7.271084165037327,0.28299886268905644,4.612716536708514,12.267916504170172
6.870032885577941,2.923877950375929,3.5761292130829583,13.447302691902518
9.1592747436273,6.0276759486311855,3.5784617530251808,14.072824882669446
14.847991628484113,10.069304040119526,4.942492443353868,15.69710190460933
23.189013322831546,16.94917325831657,6.629449450214816,18.43931011038077
32.08572646735982,25.813125134403407,7.832213997484041,21.030050530159425
39.370205263099194,31.601926056911104,9.33492249866073,22.936756391526696
44.31656308119912,28.559742728433083,13.113362066262605,26.058545460388768
47.694153507410604,15.666609034775536,20.24266029462649,33.60086624289728
49.95705047382809,-1.7894916281121958,29.128365073658944,46.86925205616716
49.49673809372603,-16.52695561694421,36.02707763233563,62.954298318879324
43.25648595855779,-25.25130753873656,37.60361464797224,75.36833911059331
29.523866767264828,-30.644418084760616,33.32650237051294,77.35061882869624
10.195324552449355,-38.17062404471188,25.789051377293628,65.94704175394824
-9.792420857294188,-51.1957409976776,18.891204173235415,44.345525782294764
-25.44351769568161,-68.27714980796083,15.288503856676874,20.45727150038867
-34.64280010458473,-83.77533967019484,14.726576200745493,2.113964629748922
-38.92741211406036,-90.79824898983233,14.257850236545282,-7.713160468359035
-41.79426026206307,-85.00050411935122,10.33177803729297,-11.913069622567429
-45.97651120805784,-67.582112112805,1.5154691913378915,-16.060815154596938
-51.72136554493626,-45.58130197509904,-10.14406103423418,-24.20745236666686
-57.17049607841588,-28.502633084310894,-20.314119480717583,-36.734902588683646
-60.097502697416004,-22.744951813124995,-25.286729535172856,-50.750097457481935
-59.23509597460472,-27.339263323681863,-24.361229626451404,-61.88076826751688
-54.328159032754954,-34.291213371355155,-19.984524300916995,-66.5680833691829
-45.645760549233586,-34.143768086670924,-15.679846692163895,-64.01975572850469
-33.92112362163458,-23.43381622089523,-13.30521274747506,-56.49978602293544
-20.58254350539081,-8.149333489900437,-11.692285774108779,-47.44866741875539
-7.546752048305936,0.575533272829205,-7.875738640518067,-39.03815198298305
3.4929381262959143,-4.311079302221694,-0.06878744455893432,-31.365436096836053
11.68327317112371,-19.426951832538972,10.179383038908718,-23.50536160663126
17.16909496190159,-32.911140232056056,18.642035371304683,-14.798390760850957
20.859498568355953,-32.79719601602061,21.333863227835376,-5.343542836482633
23.839706407889775,-15.095507108511878,17.197298364458206,3.900908930777051
26.571351093163887,14.056817320011845,8.51840949828595,11.132748311557588
28.560125785290694,43.26084939122367,-0.940865660815206,14.455778978909397
29.0698212969677,63.93098151457721,-8.411251266903886,13.461005867390442
28.214861954265324,75.07084808803542,-13.249655590679522,10.263212905149308
26.984127590399186,80.66376021745532,-16.065780359471585,8.569197683470781
25.96393300760606,82.71808377198863,-17.0352414432413,11.107489232459871
24.37302696526831,77.83588848473477,-15.339557761181812,17.272397009276016
20.83022644702594,61.33505792905561,-10.355167262075138,22.80182025594305
15.099859594561524,34.33049827258954,-3.1842238080658696,22.17613023397833
8.804217904397579,5.975089604313092,3.288815241885012,12.72625452785017
4.33261011945199,-11.512591322947598,6.025719647873069,-2.3928483091576145
3.1000952959622965,-10.488699855699256,3.6972567859355814,-15.420561758697644
4.649617653656669,7.674822804904762,-2.67923719602184,-19.440561034518872
7.077359200888534,33.72291951045706,-10.535233267079962,-13.882676195052694
8.369557285499518,55.84615585880656,-17.14996469479552,-5.16928142652802
7.825270998968305,65.80432330598563,-20.71422893048962,-1.7825043707728556
6.526729856040198,62.08699454917527,-20.59563116516004,-7.839547883597334
6.278217009112216,48.209093805804144,-16.886965199524855,-20.01011699177738
7.811777983000004,28.082811269500898,-9.768995902667397,-29.610330598642744
10.004857738639792,3.15437011574281,0.5675436269852986,-28.370125393490987
10.931533719307714,-25.79995461657083,13.129629189349814,-14.388812746336338
9.635977284418841,-54.58046589505637,25.23179409190446,5.778997993388781
6.873226127605793,-74.54291477195292,32.88831220417004,21.10394655185499
4.319375206544143,-76.99664322703572,32.862292968456885,23.710986200101452
3.1891374769698504,-59.59199905326573,24.907667238858874,14.039107359615475
3.35655403909431,-29.12858219974576,12.223511165356337,-0.7239350022149382
3.397222674571864,1.5697755875998805,-0.3388257903661009,-12.940483586235437
1.429318950048285,20.403378753045246,-8.900307939640712,-19.632265728531408
-3.702086525140385,21.870801389964434,-12.182182653614184,-22.713220800214557
-11.61469226567074,8.647362479567327,-11.345742758013213,-25.57565365572501
-20.463143536506312,-11.28815532947071,-8.594769631835124,-29.524538041626034
-27.693554896613737,-28.956858152628225,-5.811433835567154,-32.484044276418324
-30.901095994019574,-37.072190870546265,-4.133330400491793,-30.55308502904582
-28.602532631231306,-31.365063913386454,-4.19000170990623,-21.427425107067645
-21.017132014123657,-12.633944089901467,-6.006997208804819,-7.160011192906991
-10.446656889671365,11.331861553660534,-8.40571361759539,6.518429842653502
-0.4867922056500272,28.0852824528617,-9.040829201490762,14.470793667934647
5.795538851677731,28.25028989256149,-5.929355265498806,16.487575754922617
7.291276151021052,12.794419135939144,0.5739260706688287,17.545842669637803
4.682637887052083,-7.530309413100025,7.4441089505283395,23.44209864290575
-0.8070386367685853,-20.821119349254804,11.013918891496704,35.469852958044584
-8.213307107972533,-23.207924329342454,9.795281796557184,48.702828626299755
-16.53567376960494,-20.966465569090946,5.770849221479551,55.55840096346515
-24.150066831807663,-24.373501368049904,3.0719456011750492,52.089959900455426
-28.95948971713835,-38.43567540365964,4.906993034220188,41.8908341651559
-29.38377804961293,-57.668561881371254,10.937860372560714,33.849804197295995
-25.424659099601644,-69.2429503325092,17.192963450529742,35.09269967944916
-18.900010743430833,-62.43225618044209,18.819609713285256,45.15196090355578
-12.443240091371816,-36.73351038372387,13.612180729314822,56.61765657525833
-7.803548683064512,-1.8718794734649387,3.472135036797707,61.38527441382434
-4.788183026771436,29.620849431075413,-7.203537390375404,56.55603144118031
-1.8440006255960635,49.84557585575065,-14.43449138473055,45.37970384685179
2.297552078520703,56.85326783596462,-16.258007408141175,34.01249242896058
7.595445524525274,51.14961991583183,-12.317427274741997,27.795330719175436
13.115766901270364,33.55503713690852,-3.1024748434981055,29.124439398564842
17.939872710722913,7.5365733582425705,9.524555113844794,36.53908296946359
21.320871503511093,-17.78702507884475,21.27940950687482,44.5565132967964
22.300341101987282,-30.025135021182656,26.26941014896547,44.7973729296453
19.93145352433365,-21.713319129309536,20.415392913610432,28.838568482209197
14.272997274304245,2.6926016866120035,4.917406586039495,-7.759638827761522
6.9560365501998325,28.582780145119013,-13.726650445251794,-61.63787695811755
0.43880376282623845,41.51602187585007,-27.719560046238218,-120.20381127794026
-3.403747711500808,37.53680379135748,-32.779876855468615,-164.99855776298855
-4.021388796997977,24.421689375875214,-29.826300254650697,-180.02453321926492
-1.7330563817655114,13.010969366096731,-22.508354853598746,-160.62968947595715
3.3037696027955143,7.250349284488647,-13.345090465561539,-116.24962786783378
11.585377717512522,2.8168518542318206,-2.3345160835577463,-64.20264107731063
23.451982669065988,-4.91697900918429,10.862886705118186,-18.965587105517518
37.38853114446093,-13.057479192638267,24.00336471117985,15.04136439775153
49.19269776724284,-12.617100746241897,32.25359271200711,42.129462610567714
53.60971105237961,2.4057441288901513,31.408245442422263,66.84886416996973
47.74971177387681,28.292764647991554,21.036719651489662,85.04490801544296
33.42344808238074,54.02852585866981,4.559543543464746,82.59822584482818
16.204034869763515,69.83941807706277,-13.278825408340776,45.46754324208705
1.9894643798614795,73.55073464452694,-28.74639940452964,-24.894142737021927
-6.188058182960016,69.8900739096084,-39.5821958561748,-104.04756896256066
-9.126271020621617,64.93573149668073,-44.46259576658499,-154.59099150814566
-10.177793439430305,61.817933853315814,-43.228098472677736,-149.05405836219362
-12.831607241700862,61.39697957593043,-37.9862592032951,-88.83500883679196
-18.424175819336266,65.12215582042738,-33.108035938736556,-4.417215489298089
-25.27624044038144,73.75735015718524,-32.39148186995854,63.26179803552225
-30.07110390592158,81.10691306975963,-34.89651056777821,86.62287554439229
-30.684676848263322,71.3702445990536,-33.91249284019633,64.67605213129062
-28.08209346412645,28.617043002219226,-21.771822661601927,18.902004256881494
-25.406964571231647,-47.1446986445705,2.9510899555828165,-23.050769668957997
-25.021256941582344,-134.7312368498671,33.180189886689476,-43.77753625205963
-26.290478120452455,-206.0396266910828,58.96428308656712,-42.41638276416226
-26.114792283231225,-245.86629468401452,75.096356705613,-29.164842248815198
-21.591721880275088,-255.86904701357193,82.43381656703481,-14.666664587473221
-12.52561179975111,-241.37523793637308,82.62098519623753,-2.800035866446381
-1.919254720225024,-201.6453669637357,74.26290969637955,9.2091096878849
5.897581005877136,-137.30313492700623,55.98415840542779,25.49485123512936
8.311278226161553,-62.624515295564144,31.81911660121377,46.17856462327461
6.426294143559019,-2.219909664954329,10.783653667126273,65.9368824260888
4.207157606633109,27.822238484685933,-0.1303130990360251,77.20652238684983
5.208095480063339,33.69231221952338,-2.0055389441820255,75.43099031730814
9.679767061829773,37.18117318246679,-2.5607576200031423,62.33398360641793
14.568982403881304,55.48669404016294,-8.848785231013126,44.699105067899744
16.14025063844944,87.0397832935325,-21.29409957603769,29.730523669828905
12.7719353502912,114.8513740501768,-34.055301271051306,20.792944823288234
5.954416088622967,122.00162159033225,-40.338537066683564,16.610941989062177
-0.6956517367239504,104.90829965016565,-37.48434857825495,13.738286988083361
-3.5707294931956546,74.363671591316,-28.026208240324696,9.68511035354296
-1.2954770329067122,45.65050063858238,-16.94857349424408,4.366232280316576
4.251145618485162,27.452671144345775,-8.168228661846223,-0.6614446360157212
9.096472943891795,18.625404510203982,-3.0011668413826467,-4.119757795437169
9.945824324986111,13.683652922200688,-1.0105389615231253,-6.285618173377893
6.440502500920742,10.159332388214638,-1.5780922066930139,-8.307940363611534
1.156570822011795,10.817971482079573,-4.509778107930638,-10.206333431152268
-2.4238166899075213,19.84435931966802,-9.497059438339388,-10.006674809059726
-2.3482316086607615,37.34485637810608,-15.435501653329467,-5.583528353502081
0.45156114840719763,56.806783595548126,-20.433156388819338,2.4409785088135023
2.6586590287470226,67.42607899022518,-22.49612169335021,10.08709484795181
0.9067980580471093,60.18442826242629,-20.369034583064536,12.822100832958967
-5.342882247129167,33.99664443744411,-14.047216100199797,9.308611015977238
-12.745484038524824,-2.4648506522602696,-4.812723646337021,2.7119302311645055
-16.223062689484685,-34.89181206245306,5.034386690067908,-1.529277415459481
-12.82888690030103,-50.68400963201925,12.630143277369003,0.23464405046771483
-4.0497706011888335,-45.0367531544223,15.389058306688113,6.891730121190627
5.261557323665808,-22.950381331182808,12.289864123380392,12.979844257053564
10.113338930684385,3.4070711288736817,4.831700364723408,12.547144380159864
8.184578767343167,21.00360103460697,-3.489182677474534,3.640934812690061
0.653073442428694,22.94885776253502,-9.230053308535105,-10.390040648202728
-8.851766652177211,11.65413252942258,-10.966935370037811,-23.832717221775994
-16.10134825212459,-4.422191066221096,-9.395906780727517,-32.65837017655339
-17.76653397773263,-17.673101727079235,-5.635341705171183,-35.80097349221402
-12.12579954436453,-25.788108758935984,0.2523418603820982,-33.482378886142996
0.42419540605197664,-30.432900326882656,8.679612462603247,-25.83139042129215
16.533190347315074,-32.86496004584887,18.41889901780057,-13.910250201009358
29.806157680596794,-31.75776138011404,25.577910476111665,-1.435613117238447
33.32212787203085,-25.139554815011678,25.56869186531276,5.876143258654941
24.313673998516496,-13.479794973021935,16.81323237651423,3.778749429920936
7.154001265889808,-0.22745094107069386,2.718441131018694,-6.992693749282076
-8.907108970325876,10.404071771753527,-10.161972849023941,-20.306775187463263
-16.05656792129078,15.65993373350055,-16.280525186052596,-28.06151113284281
-13.062046887063856,14.424662305612506,-14.127261245636275,-25.326294786966333
-5.292848320186901,6.003254520098418,-6.140235931200744,-13.659681560406298
-0.3144194192767697,-10.359506151345505,3.6596215920693393,-0.03946398840451258
-2.724953827256785,-33.92638448191775,12.044825347025764,8.029898151331386
-11.455555906701358,-59.90302314727513,17.440012495385897,7.556771368227434
-20.80701251705983,-78.88578459882555,19.37607964525156,1.4476906965059586
-24.49465872132001,-80.74062761580073,17.712881930815012,-4.332186206551824
-20.064834172410208,-61.39589026781824,12.605838217469866,-5.054635934095182
-10.404491736120974,-27.10828162486167,5.0876341812250505,0.14172275998932582
-1.2010464447260614,8.315362615088986,-2.7455017984594816,8.363204813742865
3.3032308312389165,32.00435519762644,-8.63394492682838,15.07201490462506
2.73971864144333,39.762229583018005,-11.567541709955819,16.84434239878347
-0.06999755350458457,37.15367113352781,-12.304230319448,13.302536315885598
-1.4832068265718126,33.372693002224956,-12.236173876084136,7.056059202719077
0.8335459490250214,32.912951670595696,-11.533930072083969,1.749272110652992
6.885098199919823,32.069267162961864,-8.58423820800254,-0.2649327565253341
14.60409259543643,23.851642583757478,-1.799417493174157,0.9152444553401232
21.244342244979343,7.267088198141031,7.656290495140139,3.049667110788302
25.072563791863253,-8.528104833706765,15.266034328736984,2.9927765337874526
26.090433412203822,-10.860988007125874,16.11792915156809,-1.6262422959751568
25.44655031996924,4.568106346593753,9.164324412281593,-10.871053468824536
24.53236320912868,28.614634669492375,-1.304214852853801,-22.174853353064513
24.615573560364677,46.112202553497006,-8.71943904541648,-31.828940895541127
26.618176485612143,48.655879875247166,-9.284878962380937,-37.273736336948005
30.445396411899004,40.36295388676993,-4.540215852003325,-38.31936404677712
34.42995073774441,31.62644668526619,0.7357407980269102,-36.57184938727597
35.92115325583291,27.698226428488198,3.1533164376472205,-34.01050919013766
32.87985941670006,23.581621165551034,3.4619228500111223,-31.855689400557953
25.189375260684773,10.186541496421487,4.9598629435165345,-30.02693066952046
14.717649763982815,-14.587817402109575,9.434212387173053,-27.25126064189352
4.20342723281351,-41.22817435280689,14.829443322605869,-22.05928446436385
-4.4062548606235765,-55.402884831965345,16.814185174190374,-14.215454645176338
-11.269751669678236,-49.68269528886664,12.429418627487888,-5.151953079933515
-18.450061039728002,-29.04748402690259,2.350517132054577,3.372850124337004
-27.740454769650775,-5.6876053008323,-9.805397853183404,11.134991180079911
-38.1047623217067,10.902350536911216,-19.885143368520815,19.76248846826686
-45.54229202143833,18.995929922384402,-25.180688816413326,31.040020741612363
-46.25788094040368,21.589519481751683,-25.027070907185482,44.77197316881559
-40.4012456402642,20.702827480671303,-20.53902602981081,58.097968709580186
-32.600125605810845,16.195921507777054,-14.278041033935969,66.90734413717402
-28.59001246230806,9.39033504875009,-9.718551980228794,68.4837944126353
-31.00020236949007,4.905681476944325,-9.729758564400306,63.487276280804906
-37.78870834295544,6.269086874354837,-14.27112484055819,55.493475584153146
-44.09882401257213,9.819006924138442,-19.32124216180502,48.168729407581075
-45.63645523479141,5.605510810786859,-19.083224149410217,42.582026232106735
-41.082430940407704,-12.974839868813447,-10.656284651832486,37.3026173303629
-32.19756924565391,-39.69981620170035,2.70030487023166,30.999191191627858
-22.014371600412993,-56.96778740433391,13.166427533161114,24.48333116638003
-12.800367494338786,-49.22892881076533,14.18372905571054,19.957320982661745
-5.346225468911233,-17.52221443335984,5.880068304308235,18.543213906447573
0.3992918765010371,18.302358819259922,-4.560410207093137,18.872101747771257
4.585831989166525,33.151903886256676,-8.142706952087224,18.01003608233564
7.401130432827977,15.561156449465734,-0.799622384351505,13.676024451171235
9.25154904614695,-23.61235540474212,13.674220999782142,5.956411834830626
10.603226358664537,-59.284716190821236,26.52795095586891,-2.68335905041411
11.74324924328046,-69.72798424992024,30.212930581991998,-9.28636463527571
12.874182452382753,-50.19823266630239,23.167703998501334,-13.009803155152873
14.246763340482092,-14.129250967501447,10.211689343776607,-16.151860719919508
15.949315642981924,17.34782221300798,-1.206802915390717,-22.216808392916256
17.753437461396288,30.017587676696866,-6.1062493676852565,-32.55021976507228
19.518237777844845,25.433635662037226,-4.880624876275088,-44.83286096146012
21.656337701834317,17.352773079298334,-1.9590803492268785,-54.898568199216
24.776704809116733,18.362357872542496,-1.393030575961219,-59.95984416516241
28.735993612860746,28.501319236071396,-3.2949224171171805,-60.307312195032054
32.29272897077947,36.49883140713234,-4.375045155391504,-58.53139217482368
33.85337021902941,31.733321458445456,-1.7740381678484585,-57.465495109607836
32.547852886673205,14.24648048592899,3.9460835144057222,-58.40896167501666
28.826944833849147,-6.684426176037289,9.672962923765732,-60.51654211605131
24.472895417456026,-22.10303021066082,13.180816413374245,-61.601626137128385
21.96625877046825,-30.237477349036446,15.181436331157444,-59.810838553638625
23.002431387177815,-34.60116751352314,17.79932001948275,-54.831531671691444
26.83825023261806,-37.03723594512988,21.259713067662933,-47.640688700806464
30.169207988386724,-33.81115173400326,22.516288661775267,-39.33320150151517
29.32381619867149,-19.03373340092048,17.620366528536895,-30.401675720626606
23.168072487759474,7.813650035116277,5.839731519242457,-20.913460412650096
14.145672357591877,38.01431435963276,-8.467976569629437,-10.879349252578136
6.586414737868291,58.39501783243697,-18.422102865202476,-0.36220448699795266
3.742623568266861,61.370282141885035,-19.728750883651927,10.356454777550056
5.67609271744778,50.89497698421532,-13.89196879873726,20.536236687533496
9.224896110919776,38.385484344937694,-6.689661408467462,29.347184367286644
10.05917702695844,32.77750823125872,-3.435245497572734,36.92825714067451
5.669805182100494,34.61853467896983,-5.344202382598158,44.87738106885293
-2.777748016042526,38.75672154498919,-9.772103747090549,55.09144516181334
-11.36431468958941,40.50719417308227,-13.128463621866755,67.7613633043279
-16.544694511182268,38.12943928168372,-13.356944567066446,80.46932110711491
-17.85173708067244,31.282819564197933,-10.528462685541477,89.25895102026061
-17.98572720841333,20.167760416191122,-6.342668619842327,90.7697602745122
-20.52147869076223,6.776282312629735,-3.3230106270232223,83.99290395698763
-27.17015604635859,-5.170871059868853,-3.453452388375527,70.74670228011679
-36.3416122357235,-13.160916937397113,-6.535088334563657,54.587981995209425
-43.810765445958694,-18.205160420983372,-9.873112180231542,38.671669508974524
-45.35959449853911,-23.439911966959695,-10.208320715492349,24.11729690558696
-39.929554086791754,-31.027003017167793,-6.3034233583880495,10.383973875391879
-30.755822048099574,-41.01488939550041,0.30899528302251034,-2.776742076117461
-23.08384009810783,-52.16316872333963,6.841732031441276,-14.028508736403479
-20.189889668902033,-62.27124132370162,11.160315328649496,-21.29124068509587
-21.215811172594922,-67.74662422426283,12.436467468325644,-23.716407601307957
-22.50013192633828,-64.60669517883574,10.780275339468492,-22.725322844941584
-20.744067504468223,-51.588719069378904,6.967959999408064,-21.295792636237433
-15.199411588021627,-32.74002464274355,2.545841066257368,-22.23545249602464
-7.672751491199378,-16.304662986881876,-0.4080108943653994,-26.534948600746986
-1.036560321001381,-9.704573534316792,-0.3573807614721524,-32.6872590262713
2.5329311896473174,-14.09956514779115,2.4241440554283935,-37.60425275590934
2.673320987092302,-23.20419080917613,5.717682383491832,-38.770873898109485
0.8323867130079322,-28.103653927601616,6.958348043724988,-35.870677636751694
-0.6702415586887633,-24.30233425027816,5.436057185801386,-30.317290596113562
0.20040359861477164,-14.413622093940127,2.931797272919287,-23.435600457018296
4.255832038715722,-3.9528884020284947,1.8123380703688503,-15.653489625755252
10.309951294022474,4.783140386414421,2.299824773378318,-7.580362190356863
15.00028564712307,13.641045269977484,1.927542244181186,-1.1451469451671668
14.315078429577893,23.753362810413897,-1.8690077826760227,1.2042742182352122
6.763731585209084,31.706958416801708,-8.619365542230335,-1.322171194913251
-4.350291173633325,32.35199198834427,-14.654454007993635,-6.655978870237867
-12.365780487623221,25.456916528644797,-16.343557540510314,-10.92918127952904
-11.869470094630774,18.305500991459866,-13.475479038752963,-10.902733399921237
-2.558652590660592,20.52657680426478,-9.38962669919294,-5.9967714181348954
10.83780961115515,35.53804951040224,-7.831006238056172,1.3245877027866633
21.967940280213906,56.11221087705456,-9.550346882661064,7.094171548656115
26.526564891989775,67.81361387058635,-11.571884201255786,8.389610369972193
23.924392495773233,58.22635243213607,-9.627738204259792,4.991716559473167
16.712441268396095,26.245463731704465,-1.9054538181842502,-1.1615541517544015
8.669175545862911,-14.832000677117108,8.712479621676733,-7.883789946352776
2.8062249363623217,-43.79660864064109,15.977363302375592,-13.87655649972445
0.4519446212748096,-44.732645212026675,14.748978212347449,-18.281658375103632
1.6478857729991379,-18.20529876321168,5.373514739200585,-19.97169336000787
5.854247746920946,18.010954878376413,-5.75859427342204,-17.954494269129487
11.998815552703297,39.88473757974744,-10.333739620390142,-12.45687628229182
18.2904385940015,32.78055753771684,-3.998941885500569,-5.269370495933213
22.814154295009043,1.50333578642111,10.316700740327127,1.1486181799268342
24.658746868927704,-32.63693277506172,24.15793279748328,5.042558147582833
24.19749756234299,-46.93026248969697,29.325323225414365,6.233140280124947
22.129049277609546,-33.89274866174937,23.527330942894558,5.9850282942951445
18.593926997505733,-5.637412678033448,11.460135646758147,5.940480726804174
13.48592593018611,18.00281216446817,0.4488008002299954,6.8341875575392175
7.351932186530082,26.321741099396945,-5.370378615224739,8.087906923102507
1.6511312142074157,23.942507113796196,-7.117466769589089,8.69036070253166
-1.7975796001161357,22.54002667256066,-8.258176591045652,8.38728839186158
-1.59153877167162,28.444831528021588,-10.387725156737316,7.87534133532371
2.47292015882554,38.00083579093107,-11.976487060565924,7.994170195971735
8.709507559726772,42.67131018300907,-10.644120552784317,9.063476047244452
13.695450225016305,37.09384849469364,-6.0435175288071505,10.955895633681198
13.926138515142942,22.80024481679385,-0.4257705245420518,13.327104291426501
8.14350346135631,5.612701791763091,3.406160725155078,15.532278529112997
-1.5653743629190084,-9.675414125908386,4.579139523690019,16.690620154608574
-10.938752111105027,-21.89844312793491,4.615114449118324,16.259815338525517
-16.204984146956544,-31.510127360032403,5.482238523159588,14.469481023463207
-16.486503574215806,-37.6592091151748,7.348074309473844,11.959352907450986
-14.374590101220585,-38.90916917036032,8.510968575909082,9.183890542617803
-14.043747493209501,-36.72380456203514,7.581307403475619,6.509881816059847
-17.918472058208177,-36.22142099049734,5.381059688675465,4.706392640524542
-24.492089032589625,-41.6198499740121,4.274808376137931,4.749313263088267
-29.4760959056173,-50.904181366125606,5.5694869553011985,6.90278847320969
-29.514883469611508,-56.256502669693226,7.867553886530629,10.19900725029618
-25.034724993849053,-50.82233853590402,8.261134743874987,12.881555752918764
-19.56930676634583,-35.51522094704127,5.238933169238986,13.215979765833657
-16.387266645921777,-19.352766077408614,0.4714423753418996,10.17962213183987
-15.617342951763142,-12.68785737273783,-2.247705286446998,4.1982823784294565
-14.226409535738151,-18.514325077826804,-0.14386315434632274,-2.4098876953591692
-8.695758719396476,-28.587264425223747,5.7454203609731485,-6.429152330733227
1.6333391984888412,-28.153969141555216,10.469988096381455,-6.263794918352881
13.093573354535293,-7.134754927053756,8.389368147856915,-3.8489679182980336
19.688896561113147,30.25809051410887,-2.2420138842481765,-3.6552732266806696
17.540580903426513,66.08264347213924,-17.01895764756419,-9.191754009047164
8.134114267046629,80.65397947869641,-27.943917922940393,-19.942177529004823
-2.795907581427559,67.03133376098724,-29.272989087393764,-31.268656002402793
-9.813840984153375,36.116232564269566,-21.84006908312042,-37.31366134746711
-11.396463557797619,8.377851333675537,-12.118845831219938,-34.841295202235415
-9.577412958263077,-0.6932245330056093,-6.9341504280340605,-25.435699914876466
-6.977665017014819,9.690965067129989,-8.372247300118637,-14.431850838244099
-4.680903143064499,26.852627633120438,-12.83998785586786,-7.16270930796142
-2.4177004368826216,34.91344063285138,-14.553950819976592,-5.397184189739101
0.19367214025640958,26.53061630816332,-10.397255070606672,-6.900771247725287
2.922582618613596,7.786071693603613,-2.3500659059935094,-8.191645955948868
5.04027151963449,-7.2732004843412,4.249275329816991,-7.618395396919428
5.8845844605002435,-7.944157282586018,5.055530298574544,-6.08314633398283
5.45923625187994,5.208269782253828,0.08137622547869597,-5.457351164048915
4.562076241113686,21.739491563884144,-6.544607086690837,-6.601472231876089
4.138566085921035,29.811693109258123,-9.910683113263632,-8.466452753708767
4.424917486844245,24.48481428305018,-7.830354115258904,-8.605956832768781
4.893830455607812,10.066985559861331,-1.9048249944481626,-4.8110040319375695
5.080407881391742,-4.111369876177256,4.227173105949032,3.0472352842312156
5.2000136338665275,-10.790459917213559,7.735495397150346,12.495500684121811
5.803242856790349,-9.539717888236861,8.351212958820817,20.018772418991425
7.049093393280892,-5.9537690972185295,7.974131284097681,23.396148218396544
8.540157061594856,-6.443281601469167,8.778214511895161,22.64963801198749
9.728151634511395,-13.13269438378977,11.429976513274363,19.13925810903724
10.266216916978141,-22.708508295675145,14.700345948885923,14.324550531362194
10.091327158246854,-29.436032633128825,16.57485839118286,9.396957691686538
9.417694020684023,-29.652264163818074,15.909687477325322,5.336134804172034
8.58742420796618,-24.60546325288386,13.377378006814558,2.636639726678233
7.683655855464364,-19.606461830279965,10.94324290074496,1.031955283334078
6.334469636621117,-19.455873678900733,10.12398844929276,-0.1859399936755279
4.176324514021334,-23.156487638115408,10.31991984790992,-1.6011912052939996
1.546870007800628,-23.02358260765303,8.829722056555374,-3.524592901865805
-0.5250622923445885,-10.836062023375385,3.1019903072209476,-6.061471545826425
-1.1062470982476065,13.10647044245104,-6.279311084426938,-8.888483997780051
-0.014518624702832578,36.73511006548994,-14.69323584082028,-11.110438125709228
2.194390314916002,43.62931117593485,-16.2697666360779,-11.87497259156817
4.487497188785346,26.038514229692108,-8.653128873668088,-11.271883707675435
5.519720259031512,-7.672723445123989,4.340719747881041,-10.292915710263731
4.095161979346629,-37.99058581492063,14.884870889640343,-9.72765005366081
0.0789203407166612,-47.84561974017009,16.67014580037144,-9.240579162324426
-5.101409532808471,-34.22592036633943,9.399598372672422,-7.513680856852616
-9.174109466072403,-9.260486028577054,-1.2374601341482798,-3.0649908085108786
-10.423026619684526,9.779161562801534,-7.99391084065071,4.8966988568996594
-8.537493679184234,13.926822670848347,-7.495330121045769,15.695028403624843
-4.541557651424863,8.567103414863887,-2.4743558068649065,26.77560772973532
-0.29871064972805256,6.654668743841001,1.0359877069398817,34.44969207089654
2.2056929172839848,15.275029894607306,-0.8088581259519073,35.84811631955596
1.9341790115148685,28.573319437786846,-6.376991019691292,30.65101802304154
-0.34274091219638686,33.64947749411726,-10.322832431671147,21.099080881870115
-2.461096967668739,22.72667763876813,-8.421029732613682,10.463039576802611
-2.5394091105716927,-0.24483430634443207,-0.9637104201872657,1.3555441864685025
-0.4088518714207078,-22.98683451453108,7.720283219755177,-5.182457077177231
2.4948360983470064,-33.32711279627415,12.4182375438409,-9.695787664422536
4.415945887309144,-25.9608942580935,10.219019485086989,-13.438390785814928
4.447488868138784,-4.585326625523092,1.999699041490515,-16.942506704240884
2.850361499366304,20.640314785473343,-8.27708182087014,-19.24382045871269
0.609637200385585,38.90301005151343,-16.00607621486102,-18.799784309800028
-1.402820575543738,44.418463619763045,-18.611202654678937,-15.259836084150788
-3.110311522850775,38.006125714430055,-16.5038449887322,-10.011259231069833
-5.118569485590235,24.02376281820648,-11.76811321903126,-4.909085980331251
-7.828955353872707,6.567790704062475,-6.20173699144032,-0.9158746241639885
-10.765086854460797,-11.353176520708551,-0.7052345260129301,1.7981949199887757
-12.913376348168441,-26.535590155981776,3.995473269481814,2.9985095902397716
-13.557327184421396,-35.71883125133303,6.999459059806128,2.317130378285949
-12.544338219109077,-37.985958057953084,8.059141778298047,-0.0756533575507315
-9.97299566702429,-36.23904199287738,8.285024482845747,-3.333208406028817
-6.173014440230436,-34.822467186416226,9.20665202055674,-6.635304197531466
-2.099475761223974,-34.79305782363707,10.78905336899728,-9.733476426163334
0.7954033982441355,-31.67247137058619,10.689507663861942,-12.728808574923823
1.592257672461858,-18.82841114538484,6.041005761679734,-15.558643833956468
0.798616601616986,5.727201650844086,-3.5953998525757846,-17.714921735477915
0.018662478387571475,35.3056289341404,-14.900274364024197,-18.224521228561038
0.7140124611591551,57.790030004560904,-22.614720291296713,-16.026025466681027
3.217572233891471,64.10459315841668,-23.217198764304282,-10.880679196227206
6.616394292956299,54.49888332920499,-17.362435122351116,-4.049964799094167
9.36454756172097,37.07177041967414,-8.975311483292408,2.409577289628831
10.295756355016481,20.590170876354684,-1.9514565402807649,7.355467220076343
9.500696695580471,8.910323918329459,2.386100001362457,11.293239539011777
8.25125060309385,1.4406627118982058,4.953860515781936,15.16908327254672
7.764615529057951,-3.051229770661625,6.7579229238203,18.78464531655437
7.95071718042331,-4.63519170283596,7.643103400266338,20.824398357505682
7.532762555089416,-3.575828440016214,6.998094531156077,20.270592488747784
5.379726946480333,-1.616741099092113,4.962022116655144,17.41240870273782
1.532819726729868,-1.03142311090052,2.5334663416233636,13.60490387982298
-2.964078426141105,-2.9487200777006,0.7826429327531227,10.39708032381019
-6.855812525621725,-7.098367693162926,0.29205833403658177,8.649673203787641
-9.274326845648948,-12.840019510774047,1.1795471986878294,7.8350182733928335
-10.048059894793832,-19.930032951951844,3.2437659406448387,6.123689851387786
-9.745430256614569,-27.95337436975867,5.8906605640873275,1.8668083802375866
-9.148177431195469,-34.51782795752377,7.919809598019487,-4.478131162375491
-8.347292897690416,-34.041646843986065,7.528023851836089,-10.121645755771251
-6.515681791208851,-20.091673874999607,3.052556403469788,-12.073096964663234
-2.9221795168662514,8.434774623500832,-5.492010579258422,-9.611854134823242
1.859427083552439,42.519479124697085,-15.267451234255127,-4.731530528244715
6.0353436901389825,65.99938161593134,-21.49252937008727,-0.4825264862948225
7.941276348797956,65.64815918071783,-20.306544050913644,1.0260561286966747
7.206931536962875,39.89787438278981,-11.327957558942302,-0.4047585048966045
4.743392571242084,-1.086213131374332,2.2845837500280917,-3.325564301312823
1.9200498761024682,-42.687682934090105,15.997168897694305,-5.84353631453331
-0.23937832506162474,-73.62790377767676,26.230393749278043,-7.118810827747815
-1.4123497544497607,-89.49011841853074,31.429070273542337,-7.930123085316754
-1.7401604712470764,-91.65998725919373,31.89934936007651,-9.580702432872982
-1.1183451622509435,-83.39741168258604,28.873275803008454,-12.229214634332646
1.2301654277685172,-65.75428575407038,23.240558635864616,-14.578297146444752
6.046300156065195,-37.09228969509575,14.895968014339992,-15.216673931791101
12.618496830182695,2.13139854994012,3.697729987568958,-13.90434183022618
18.367745412802027,43.508596366340925,-8.563285103525299,-11.476717043390336
20.35885683161939,71.16322008520906,-17.536571501448783,-8.963636751262797
17.450123248194622,70.8532172490785,-18.592384577607266,-7.057654761858763
11.001982980262506,40.89980751224679,-10.492970927967425,-5.957868198800928
3.6891616062422115,-4.6493951054156275,2.9055305723178653,-5.163944143409945
-2.206037845865007,-43.56373070098242,14.61449976167922,-3.572452194005012
-5.666435921923162,-57.88048729486187,18.594266345940717,-0.32158833251357233
-6.822718588830672,-42.776850989252495,12.979357223398713,4.31039313266786
-6.365266448322991,-7.140926655065281,0.5791243359834721,9.032453322812035
-4.966837695117484,33.23298522057759,-13.250115920737297,12.529200702568765
-3.105184349354891,64.68976474776146,-23.770793730378184,14.212310266803126
-1.3875878227967309,80.88893881099217,-28.908773159082017,14.340244655198601
-0.7976970385020187,81.69359160419515,-28.970739658728135,13.923911562523166
-2.1477079462244726,69.37216593153364,-25.025028579931167,14.379513303581666
-5.088023740374481,47.361398329629615,-18.086482192240283,16.51508354887488
-7.971531621534232,21.648986072445815,-9.671625560125094,19.481885272547334
-9.063681185778163,0.023178522988754148,-2.0537858833726053,21.14397604331183
-7.902053089560184,-12.635853720616085,3.0254664216107234,19.94564305691339
-5.398619959586889,-18.224153368199914,5.881878968071506,16.34066211860327
-2.8317521556236316,-23.172216938734078,8.47811968758014,12.218031069503702
-0.9930851078774654,-31.54434593729255,12.100280047972525,9.131964900517703
-0.12522772575803173,-40.23932916186571,15.510175355828704,7.246403027028542
-0.20644036609641048,-41.19299137001284,15.652181015985937,5.624898595116983
-1.111282829571162,-29.168940049253052,10.536082656981524,3.1032516158154935
-2.6964264306760755,-8.391337736736885,1.719634451718162,-0.9277437466733542
-4.838624070134046,9.130576053870906,-6.274971270029456,-6.038884759970376
-7.241000914304653,14.127883549099415,-9.761769328157433,-10.942868287450128
-9.196749521845813,10.098088897531357,-9.576280130671629,-14.514467173335133
-9.836618466629782,11.173397030202691,-10.513304737436902,-16.79382432600928
-8.768921039997817,27.604422198372202,-16.267650194261464,-18.802490300819247
-6.263171325239037,53.15854830938559,-24.758708048340495,-21.355581459236216
-2.668343415991161,68.6168599322802,-29.06064356996646,-24.27819890409934
2.0154456985523237,59.03599200082795,-23.583048978538226,-26.697482287666336
7.586396537432306,27.83667171267813,-9.574968542146658,-27.618201453924215
12.790028454633896,-5.76422658788005,5.4026783601473225,-26.07840288863717
15.522766093422176,-22.812981409852988,13.461393485008298,-21.347556821882097
14.198247605921894,-19.174710205334584,12.311190572423426,-13.625979226702986
8.979110158449267,-6.729271800595184,6.231620284799323,-4.514097851345507
1.83380722611331,-1.891491323354984,1.9436102195822125,3.6451333058338338
-4.424968679277109,-12.092916759689556,3.321628591849608,9.091128675215804
-7.448697205345324,-31.107679488740217,9.138513468514445,11.417293546028592
-6.474188030054997,-45.88583028700376,15.039919048218632,11.459564564868828
-2.6800587243091996,-48.00594127109572,17.541297442666423,10.828936836169618
1.6625438973948905,-39.74525990847832,16.587067013280016,11.202920942882628
4.718126395613818,-30.379796438303053,14.78838467823664,13.177594846959755
5.9402301383403815,-27.16515834947948,14.4157403886941,15.405163464656729
5.619983802823654,-29.362847930337775,15.061788646701858,15.293657373904642
4.032029421750176,-29.911172476229314,14.075006876707663,11.109094484805501
1.3138016217053554,-22.488076710741908,9.267170606518134,3.548041567241531
-2.067252939586864,-7.87877421811621,1.435025489087608,-4.656858273362847
-5.199034660439937,5.4003785668411375,-5.5358049478101545,-10.444151924912916
-7.18579547313232,7.166357547513084,-7.27787547869619,-11.928262291359601
-7.552967413278939,-5.714506467102405,-2.412019683414975,-9.085459894537227
-6.252080713852321,-25.162879716463575,5.924594870688786,-3.693709548222398
-3.5666005337372186,-36.99557401853847,12.09875450705525,1.579028173023885
-0.08814007789387304,-31.786609405128733,12.1507756033418,4.713220329016174
3.4501410040731946,-11.761507361566622,6.513691673768679,5.324550920849409
6.429907220202822,12.169677187831146,-1.0084929400118565,4.181183221947898
8.328411643195007,29.108526333654158,-6.569536133785666,2.065370127432622
8.563867464534392,34.230549124872155,-8.611522769734773,-0.4832270907611198
6.823206614966223,29.090294433728435,-7.758261496485697,-2.55512932296285
3.758241451119598,18.974535509440436,-5.512661660234828,-2.8644531404814026
0.9642215253244297,9.916038797332524,-3.285214567544596,-0.8625895895051312
-0.20841418186309751,5.741032599656044,-1.9587443821385409,2.3939994938049916
0.19868151468967124,6.329589972538715,-1.7223848783747462,4.875262131888693
1.0292843993957426,8.97950506199469,-2.2812090491770896,5.1119087591806815
1.3412036840547747,11.636272755742727,-3.3179963046610816,3.1529363946856988
1.1876021172699118,14.214564946573043,-4.631098102965872,0.37811101250094875
1.169818960241125,17.26166290354377,-5.948843567541046,-1.4097272320953993
1.6053286271025282,21.214851574033055,-7.1639458798355,-1.0834897904290206
2.2653062542615445,27.539981413408054,-8.952629720595416,1.0809323921320424
2.712954814439312,38.408578208805956,-12.458903447483019,3.7611178969859167
2.801343667347321,52.878095254585965,-17.509938472915735,5.961540498760263
2.9766279573446672,63.804656120869645,-21.237975984901603,7.956518931804333
4.0318028771204535,61.04544083335919,-19.456115370821575,10.516642553434936
6.200751093537045,39.64781920524278,-10.271626486905227,13.263249903242006
8.37223520662711,5.33130351669328,3.488778032784275,14.309378835103159
8.596988200543437,-28.33870774169323,15.720836713524474,11.808817526887404
5.802512491920649,-48.965993624982374,21.351505464723637,5.7009284368977
1.0043075123407694,-53.32632735815984,19.877320217179197,-2.071303959331088
-3.371052558532704,-48.365310706219134,15.291077591548087,-8.716283572377643
-5.383444478562552,-44.47598759429885,12.566721752795893,-11.99535383358162
-4.885638093774676,-46.04556118555494,13.45427842158607,-11.278233950358212
-3.3835026443659406,-47.088700250915416,14.892702376143944,-7.9823615147297335
-2.96325140042269,-36.73621836159775,11.608162652688312,-4.877125951657935
-4.988295312337467,-10.85457122600382,1.1916918774924123,-4.2962838831984245
-8.988080361607675,20.932569281258164,-12.627309442697449,-6.55776660022609
-12.4484667648433,40.73371973726122,-21.897205163020498,-9.916152515864324
-12.23636328633469,36.573751279187505,-20.473183987609133,-11.879586237166322
-7.094790969040584,12.532667039596365,-9.086711406661069,-10.76052079162631
0.8045222757986753,-14.30326673574234,4.927754206972015,-6.788200068328298
6.839165877130263,-27.015888424512376,12.9038787185678,-2.4636966005327903
6.926298498160094,-20.760017275843424,10.749283743204881,-1.4537793531095642
0.3790717109883155,-4.372230135956479,1.1642134702495373,-5.921909802198109
-9.385031581602439,8.191954420298758,-8.934840329160924,-14.241153595185574
-16.89229448199173,8.739105703262227,-13.454329309233545,-21.663183952099157
-18.222219501161153,-0.5816626484961865,-10.878035129160457,-23.818340721318975
-13.635246202821083,-11.310172821933127,-4.348305004995688,-19.819179358372068
-7.051863747906438,-16.00821820140741,1.2763346678608958,-12.272992997131412
-2.7283300947386806,-12.11070446859227,2.6596482291530545,-4.857370392689796
-2.0350146038353163,-0.9932398418665405,-0.588424227364102,0.04662668981013617
-3.014301030266105,14.118557489156846,-6.3734049246156195,2.298645745399809
-2.5556426725382924,29.052136819574716,-11.509293448617532,3.6576384459470335
1.136294765475432,39.61687115962549,-13.363863191507082,6.445504598965388
7.516905427854503,43.403613472806114,-11.204816081456269,11.635421439921698
14.115670293184051,40.657098511503065,-6.446886059432353,17.700517669380634
17.79516838801272,32.991097152674605,-1.489500081033636,21.529653282267475
16.493131419684357,21.72763190317098,1.9644914427853197,20.797157097170796
10.675204601079775,7.9306131444515975,3.7544350423440185,15.611690652534566
3.224918520265996,-6.509822994768042,4.779846825566177,8.219862399841125
-2.5084823192809442,-18.656234548699622,5.847844926288486,1.5671624135467668
-4.932466900746103,-25.62206392837236,6.8900946525160505,-2.032753657215579
-4.806034614827218,-26.159085571130223,7.17456837802077,-1.773335825448703
-3.994953647745188,-21.933357357056618,6.327496335490604,1.3215216650061485
-3.75450914930721,-17.463652316230597,5.192059190943763,5.0840821073314
-3.853706258722156,-17.545762583675604,5.454212924895549,7.732163394739342
-2.9468290108660415,-23.081775235337073,8.039859485940736,8.884978622509067
0.0730608858078432,-29.312566321411886,11.775764440954479,9.078533787012338
4.586993009595685,-29.67749666374098,13.988615782549308,8.620620350098005
7.983409028705896,-22.745087672327948,12.896583415398336,7.276995808362461
7.33926156727273,-15.093893751583899,9.52274950806809,4.854050417003118
1.8716598710581784,-16.15238444377924,6.990815626145768,1.5725833626825443
-6.123548564285401,-29.346117349408317,7.6886781003388265,-2.132971881785502
-12.751688642530148,-48.041647078611604,11.06849300131867,-5.711251181411608
-14.971088814254728,-60.0134695845155,14.158006027706731,-8.27681887617769
-12.038891586691388,-56.127348663513054,14.058313201948547,-8.763931755729425
-5.4140337862989245,-36.0208380574722,10.002130084558498,-6.664526990445457
2.2475979177973766,-7.256313238265315,3.4633534649502757,-2.52445703140246
8.44588440768457,20.224303899760912,-3.2109465043009924,2.39012842554349
12.113523518751435,39.8340198705794,-8.236667774674455,6.779279991193508
14.02064814005006,50.49777614721772,-10.949339876895547,9.750131498731365
15.767383046189149,54.66712818115351,-11.519953381116322,11.085886276367392
18.132129743284572,55.12171157065054,-10.541855179975832,11.382421813141802
20.31529178482094,53.84803251927901,-9.023635586740278,11.581456270584347
20.680695402785044,52.7505767354669,-8.408814656363987,11.950490261635402
18.151666258554204,53.23658634465859,-9.809497839693057,11.662705120013925
13.144930331117274,54.08398809366092,-12.684893885935912,9.718182638810877
7.571444984608801,50.943695220457954,-14.53316161918427,6.1281521879645355
3.8717920142429936,39.747910193887954,-12.6126743629197,1.7947283992033163
3.3966719967306593,21.22081348469,-6.488797523656677,-2.6671239217310574
5.2087563550858595,1.9092158603315152,0.9662739676332248,-7.462504208111049
6.64119142746255,-9.273247596783609,5.188845769242853,-12.85088287653919
5.545442057671451,-6.365798858454529,3.0353750270798194,-18.24221162017867
2.248756215782455,9.477416151974865,-4.7677890849500955,-22.235071483753824
-0.7204239837360855,29.264258005985315,-13.558150902563693,-23.285963900880237
-0.8858552323073868,40.289104487551334,-17.38219780584802,-20.334236983790888
2.0222401956739953,33.63735709144551,-12.834796012110088,-13.400943753699487
5.728257605963271,9.952280906550904,-1.3977344857326732,-4.129315224340671
6.974202239419603,-21.17547493311663,11.552715985189222,4.513573636339779
3.855726782296089,-47.419224753592005,20.29017217828637,9.739960947501826
-2.616126343336597,-60.32092113710105,22.065672492111638,10.475414470614064
-9.004188490233625,-58.29705476195022,17.994350051774433,7.464611370571551
-11.954621854205783,-46.099713284211816,11.558071253342248,2.16233501495513
-10.83616464331232,-32.32665257018974,6.351935850690161,-4.157896058576211
-8.167886336491234,-25.468322646410538,4.419014933530466,-10.491011831777037
-7.4606120080155565,-29.134195872666954,5.5210509023380085,-16.003357360931176
-10.521514355513636,-39.32041719238607,7.395684129365412,-20.102285572706496
-16.453998460020163,-46.91717190375481,7.16072954103815,-22.336866678471022
-22.655694806377273,-44.687736288802135,3.4297404867478516,-22.22931141757879
-26.567448305332192,-33.30227025162174,-2.333585753728259,-19.671812140335298
-27.01973035939051,-21.10946022513664,-6.613130219755139,-15.680333053739407
-24.69999559049643,-17.47940881130844,-6.503112587946572,-12.328025471424235
-21.58245615612165,-24.785052755976754,-2.2643550837193023,-11.551612853645985
-19.59082403924542,-35.111652623477596,2.2036079029611684,-14.11923746584455
-19.462313421575224,-34.562043195100344,1.4685229433637477,-19.757888874036404
-20.70426546705673,-12.93618037805447,-7.909278648438709,-27.693588666620993
-22.378894602606238,27.726551611062746,-24.59207414755601,-36.54410318262895
-23.687866390217,72.54553037608937,-42.49040740711298,-44.0497918690421
-23.976184349873698,102.41719881169851,-54.01037887807144,-47.779078574026634
-22.67934880274224,105.58145046883834,-54.42896961760172,-46.49886292688181
-19.525202084375028,83.69806100337614,-44.282162873490506,-40.71728699789292
-14.637111305912544,49.26313592731597,-28.377621265580505,-31.87331817692104
-8.376523452143926,17.68217195474506,-12.681465648068384,-21.175373922803875
-1.3424011891166543,-0.7609213515600208,-1.3052267185946869,-9.053230252499958
5.361608133918698,-5.17645177787658,4.92817323271097,4.725350487435779
10.242574083536315,-2.3818689400693427,7.849658481771881,20.405112461390356
12.297061254931782,-0.042688868524502106,9.72094412316173,37.16754644676548
11.92700230595672,-0.04593772871854543,11.165733160146642,52.541809789104356
10.92477388017841,1.5571410998947894,11.26430203109325,63.57064904908224
11.522024409730548,8.056497488264267,9.754290620610425,69.27312205248506
15.171517185900242,16.34835873058948,8.694078624680234,71.8521516251125
21.497716127191012,18.30576851164745,11.27595271008204,74.90724560085259
27.816945092963707,7.513082706315623,18.782821499175668,80.21168431642583
30.095108392909573,-15.603079209560397,29.00032708830953,86.27650417029706
25.68123679735163,-44.44393225362576,37.91751919521722,89.92959223315364
16.17715679144352,-70.95287048673931,43.117781865270274,89.20595303252769
7.6921482304239985,-89.84033196688506,45.64360671572893,85.15501316966248
7.509945245246453,-99.28290570510988,48.63814109484716,81.40979294962261
19.316640568931373,-98.64151735240448,53.994832984907525,81.69409854931158
40.360196912919434,-86.69442095512379,60.03200464060693,86.6209694911218
62.426538798283104,-63.26860390904936,62.39964900298338,92.23511375711476
76.13035593026936,-32.65178843727686,57.58351054994294,92.16954080235597
76.18904487773396,-3.743575035160987,45.92395720060868,82.19160906357139
64.46749101530986,15.20666625548452,31.42932695950324,63.196681335848986
48.46252973658478,22.70835660416315,18.68273449559165,39.95936815110643
36.01703586442203,24.370240185783405,9.801740119360247,17.099351112691625
30.26324362042014,26.938574928506267,3.9279247693807062,-3.9752454583836214
28.65177778253119,32.616494220394635,-1.1342963495983367,-25.010598507035674
26.183769118271204,39.42456764042605,-7.274098888903722,-48.499092904957884
19.50496158013657,45.756617237673076,-15.53418054068752,-74.94756696464326
8.667040554150146,52.85621776732289,-26.05830016539579,-101.60530067249107
-3.912077734537888,62.750183241568,-37.94847367673945,-123.67776461048213
-15.690211970110974,74.90283722631186,-49.42640137084854,-137.52148425009193
-25.6957680237092,85.15234529082734,-58.52924862779226,-143.3867270741483
-34.711276541225644,87.32203919763336,-63.76287889216881,-145.16902382992635
-43.98553709051495,76.63348105900066,-64.42223517930694,-147.28556145730875
-53.637719272049985,53.79115324756326,-61.00771832811122,-151.49455485179175
-62.29125588226348,26.610362229146713,-55.573409915160326,-156.1512864954797
-68.24160426006264,5.8320394585306214,-50.909533685490956,-157.84501022936868
-70.77976307235735,-2.9011938154454167,-48.45820168880515,-153.72394277700465
-70.30476872885798,-3.5215013298672484,-46.8841405933234,-143.06219753884906
-67.50582967679698,-5.735073457902403,-43.09800255465055,-127.35588817253984
-62.86229970178818,-16.567929146810858,-34.98540331173369,-108.93385163729491
-56.87657063033171,-34.91320282146241,-23.344656648499008,-89.26252351259609
-50.35331609305286,-52.879330046954514,-11.507260739407807,-68.80342006848711
-44.18857853093804,-61.73874743512703,-3.226814084550731,-48.696853931777405
-38.896683217022826,-57.63190527724787,-0.48254366912239793,-31.952483065092284
-34.27111997784393,-43.24644159591659,-2.53711033514227,-21.885765304287137
-29.34340753429886,-24.91993518504773,-6.638722930398355,-18.84360894677006
-22.817026685654223,-8.160476340277429,-9.715702415339342,-18.70158368364883
-14.021257533514737,4.5251386713478965,-9.846280129585152,-14.966302600240455
-3.7364042731116154,12.651818528940138,-6.700973621349967,-2.7095708776191394
6.08769049368096,16.25672693526671,-1.1315827495421762,18.834046335504212
13.725853977397447,15.984881287342736,5.488629554621053,46.594376300489195
18.898234485909335,13.549491086181789,11.943368757060902,76.25695366843779
22.67079130690366,10.572149816578234,17.854128646738,105.12263044950643
26.315520119096792,6.797624975673421,23.898755607346725,133.04529503008104
30.302249869324893,0.5931887270871345,30.965155645473367,160.64982460694648
34.15107483012407,-7.937344989121855,38.6573650474242,186.68519890443366
37.04921262542038,-14.685058350025933,44.71025811865117,207.6331861678632
38.71905015254669,-13.392645411585134,46.36378860825865,220.38851844152566
39.8280660786964,-0.8124678962252146,42.76170252198077,225.18182664660944
41.34208937210194,19.058001170039446,36.19252345510194,225.45814472168928
43.16009524563789,35.485201920643895,30.93205532948852,224.76990929189088
43.49502406383389,36.808856140153715,30.48757438558953,223.67497179411285
40.09608978195265,18.307493561845153,35.20444883150911,219.0234105782447
32.417964572014725,-13.484953428788655,41.872125120232575,205.59489386994582
22.546055136790873,-44.24698596552859,45.724409905407114,178.83818261451856
13.85850251723598,-61.474053085892095,43.62072477530127,137.5085363964783
8.687588287296318,-62.58223559122858,36.05724736027917,84.913702390156
6.997751811885169,-54.69474068158642,26.3444602499806,27.763843168778152
6.872120492163332,-47.24734967999806,17.80968442284596,-26.734044342049692
6.13617531360176,-44.99048121524488,11.721727405460562,-73.39773708648393
3.9411000447433424,-46.810709461069315,7.521156784254334,-109.84984228080846
1.3003869822945804,-48.86498877889741,4.264206359365316,-136.15857945435965
0.13187333822768796,-47.65100820621845,1.3640145194536244,-154.24093434856385
1.4336694162948114,-41.38844249742515,-1.6440766099832453,-166.7559255730293
4.154881276957492,-30.52473038394845,-5.259928981971442,-175.31295399116254
5.860643295935303,-17.429402331942132,-9.702005794257591,-179.37194997332682
4.604666488570472,-4.8500154704549745,-14.698734633276528,-177.24552789702068
0.35982557066810184,5.737248979989324,-19.65302191988514,-168.29994269057468
-5.013624145660834,14.352472174031043,-23.850915946950508,-154.00926173388422
-9.006640613113152,21.739370507236572,-26.669707391946464,-137.08903311444698
-10.047213257983199,28.746573548781285,-27.95004402526359,-120.09579489248526
-8.55085539310632,35.466394591081645,-28.09657661161534,-104.69161532619005
-6.678703810713752,39.88128871251112,-27.435991808343307,-91.35958146235339
-6.729419599418163,38.27026691852226,-25.602768148079655,-79.34558827546647
-9.356975348315656,29.04821828388879,-22.19057585186586,-67.40302793734108
-13.234031884062023,16.63442440939255,-18.1686606073588,-55.23253604737489
-16.3813234243101,9.864590847955853,-15.983399352174256,-44.04760237889624
-17.634816443296614,15.193381634004439,-17.61084853908317,-35.26805194169169
-16.86694681798245,31.385647361476455,-22.518482384695186,-28.723469342524368
-14.350771532240259,50.65088428687499,-27.770376190183672,-22.53277819709672
-10.58402539693085,64.05599422732496,-30.11676714590678,-14.821899163447762
-6.835028658045786,66.12622558230996,-28.12750387398747,-5.465207792575232
-5.2855470223071706,56.67289756065336,-22.9614688645664,3.6334020889763585
-7.863682281601831,40.54289446644787,-17.596595874421602,9.756024175872781
-14.401298454518482,25.227404553722895,-14.87724236779987,11.314863849524391
-21.80842836416909,16.364129006104694,-15.310695121340029,9.367778036487184
-25.39963719934575,14.091897528832199,-16.380477360479905,7.335568719827838
-21.775275736339914,13.958263887755706,-14.483750643643372,8.665130403257299
-11.193064582597577,11.569243043770584,-8.016397593508934,14.389553009735609
2.46426107320405,6.047384130505521,1.3532171449817036,22.970740550021567
14.115478361331585,-0.3637084824841643,10.175915072889053,32.22721413717436
20.32733521303992,-4.293660531705194,15.455449232319536,40.84308055158337
20.546978913607585,-2.600343887086967,15.70679737244271,48.16879681175643
16.459071935005312,5.59196224331853,11.347061463971427,53.687420095658354
10.678002561386295,15.596173952576027,5.336654385334352,57.43656305675877
5.7160730870633865,16.963580947803802,2.8023105947292675,60.35042583540993
3.180310146563277,0.45977115259791784,7.9775706652019505,63.17456624011062
3.1084058844117046,-32.11737605065529,20.131324434925453,65.0792805663348
3.9965122793351227,-65.6135377978233,32.78674052327051,64.23958730299567
3.897393436404102,-81.19639932802963,38.05193465842349,60.229400830193626
1.8892558429470097,-70.62232099072611,32.71115178565017,55.44241744693827
-1.2642210791073698,-42.91202043428688,20.836930134254466,53.617199856459635
-3.676633874590013,-17.80809471290431,10.780825787384632,56.637328853782854
-3.5951549371513747,-11.046093523433878,8.933989655044961,62.36666520753202
-0.5850277295362536,-22.71426742215813,14.957368301647616,65.32841493955075
4.00829862587227,-37.896560547319545,22.155489316964864,60.07773711328327
7.771030678940732,-39.282901543969224,22.87744737357343,45.244685271617634
8.826317234501085,-21.20370717697646,14.608355635022965,25.158488728101652
7.082100985119512,6.736282929737924,1.6180041010656292,7.221211815961048
4.018043010979818,28.46884728010123,-8.913968076840604,-3.1510220461133347
1.3804104609863683,33.972731225056684,-12.44661815658191,-5.666206366076347
0.1338646704581962,25.540039031466836,-9.75345519817661,-3.978972911644386
0.28311698688068737,14.74680972155399,-5.525508961627936,-2.2104356427137284
1.04985016146177,13.376652122513882,-4.711574154034624,-2.699637668752576
1.0485156701114486,24.058116268391213,-8.985151054092489,-5.954796382257505
-1.141464703541363,37.063178856582425,-15.371858006733802,-11.366422060012052
-5.923581434112568,37.26353550483883,-18.37886019038884,-17.829536337552874
-12.066176009662962,17.40471492861133,-14.680017371829177,-24.617576239989983
-17.317713315181155,-13.604349965208897,-6.531994945984767,-32.104259019901605
-19.760381569379064,-36.033721405088144,-0.37501564077914606,-41.08703626294426
-18.751786683410433,-34.71753499463858,-1.4238021095430997,-50.96643340624723
-14.992276891311988,-11.54201532629573,-9.021377531571115,-58.9593323090351
-9.980432914694612,15.145719593403761,-16.757816332235386,-61.59806632802255
-5.0780809990357145,23.626757944777978,-17.09136166416324,-57.06168807236818
-0.47805535636384927,4.963706200966547,-6.911492406144936,-46.179314630719155
5.043396875552583,-29.212879111169578,9.786297706359324,-31.729958481641884
12.871408539003832,-53.923208741129756,24.115369560067098,-17.01674887904716
22.613353028300775,-49.5913365927826,28.433740619700096,-4.451099085403645
31.43779603540101,-18.606501782154133,22.21703201803509,5.306703450060161
35.61063261785617,14.848345575377138,12.6662343656817,12.84486094000915
32.984754477682884,23.295554702455238,8.892094016849484,18.27367529119109
24.444520196883396,-2.1326312228626265,14.426838276150427,20.192042212686584
13.447196666884237,-44.77435392351722,24.590721948379503,16.91134832485836
4.150717209301698,-75.38654027979437,30.604390083581574,8.640492827972414
-0.8492052689868442,-73.24324516699305,26.330399466060225,-2.093332222026331
-1.9560406015450058,-39.2329592064403,12.23036925816773,-12.203923896461752
-2.064646627885338,6.685061162182347,-5.505784289513772,-19.699840114689355
-4.158640246960327,39.85341229930056,-19.117812040881887,-23.69753468643345
-8.841579327523489,46.65324639369007,-23.83846339932505,-23.813230434739552
-13.96736617699169,31.205423339262456,-20.19529398242025,-20.259547533635786
-16.617801296450384,9.271134436810842,-12.733614372125396,-14.183404360971746
-15.509138281299448,-4.512099630355912,-6.414199704707302,-7.290964687672529
-11.808511068834594,-5.1037791174733025,-3.80681769360092,-1.1515342975411205
-8.040156987513283,3.9954655835534396,-4.944947625050944,2.9779624134648546
-6.254314325471515,16.74311600915362,-8.67405609111668,4.119637646272002
-6.846437028942427,28.402053745292452,-13.46631478825725,1.9985324616145295
-8.732884909965847,35.93754442038904,-17.611464759753652,-2.596405007475055
-10.574026125380112,38.07293055942575,-19.870842923847402,-8.356452671470665
-11.864476133568381,36.01019771112344,-20.34267554562178,-14.274881160578234
-12.825070801720056,32.84845410668117,-20.178465273199222,-19.468902916612592
-13.40249010911659,31.203799830612883,-20.15279489260829,-22.390369291568103
-12.850672683419214,31.28721199110168,-19.788914277594362,-21.11152959327459
-10.63195869600467,31.08840125468289,-18.013579177142702,-14.870190976081982
-7.484953345927453,27.9328761652059,-14.329237745364109,-4.983039870837587
-5.058140856269828,20.17875218249142,-9.169254875335067,6.071465980884808
-4.268899140508017,8.569833308708471,-3.4554457739758195,16.24181404671867
-4.2096056990746975,-3.458763572318636,1.8740855203974147,24.561250509895928
-2.849220152832509,-11.371725772161847,6.092725142305196,30.889893835245523
1.1601655328281921,-12.215898769703939,8.777824468463745,35.50264419113253
7.239164744699468,-6.12421498609948,9.719861551873802,38.53770845269775
13.169569013872197,4.175242403531918,8.806082289663975,39.315970159869565
16.615255320531205,14.244022384175357,6.432459550817417,36.54000548906013
16.74859887649185,18.268984299124963,4.315107157708258,29.896546535808632
14.762356794074174,10.594993205987498,5.310610889675245,21.41654627982516
12.830676305477187,-10.28366030084173,11.357210470859515,14.519269751356225
12.433535852604447,-38.257992721278065,21.132003460864105,11.368192189159798
13.593181874840065,-61.44624903294051,30.21117080926954,11.37175183340471
15.544509263836412,-69.56323225462005,34.20392144701741,12.194882997227994
17.76837547873053,-60.98327789127404,32.04919438203128,11.763417611661943
20.16766674462246,-43.35682844284941,26.438867296965686,9.34143523561879
22.53011816985679,-27.276205838547583,21.227671719218517,5.472075819909555
24.288604385817223,-18.114564253202666,18.25550326504343,1.3904270162842884
24.884132166040192,-12.376552978050439,16.079689489201797,-1.8880980074032556
24.099776192977053,-1.6258951424131958,11.492349389799195,-4.37716329409983
22.009455394031747,18.775147329754056,2.739885813204518,-6.855088890949588
18.96070962036325,43.63947497023044,-8.131593866542284,-9.571769374808198
15.80387376661258,60.79808461140756,-16.15218963012398,-11.657571638046042
13.742171034319265,60.81831142084722,-17.20267674862901,-12.338541652929072
13.33948146168189,44.562592608763076,-11.419004950805363,-12.415529721205319
13.47414417992506,21.969286928715757,-3.182545205856337,-13.750487009389584
11.537760151068223,4.513652077724584,1.969119961098369,-17.162067235579187
5.023069178844641,-1.3023440675490363,0.5907493302923864,-21.42875079572501
-6.727745599339504,4.431588707297905,-7.399616060209406,-24.69792155695947
-21.842792752876765,16.964223897010775,-19.32934641987768,-26.5666439542062
-36.598242740429335,29.954259788475337,-31.267226470904664,-28.52344372929109
-47.09157894237328,38.179868324599994,-39.656658243529904,-32.50233133154734
-51.20921439239557,38.444390460261104,-42.37283676311697,-38.9525154232112
-49.75331967355691,28.55036054173134,-38.763550340680226,-45.76854760976839
-45.72680117098637,7.0962905826061995,-29.298173446109768,-48.866681445519056
-42.13219763346991,-23.698804262213198,-15.819146728569093,-44.55303383669572
-40.068348188061805,-55.12244640482945,-2.0061069267264773,-32.409923395579355
-38.619043436955025,-74.46737589064473,7.496570886467549,-16.24065357356875
-36.25278087744381,-73.00672215722027,9.591377550019452,-1.8218580456593998
-32.25670780310947,-52.78691541589688,4.943424067714932,6.81972777561012
-27.174758347834423,-26.062621452221148,-2.2014689776007743,9.61601237968718
-22.279799598026457,-7.753791994654126,-6.597474615032342,9.945584975881774
-18.604227705198387,-6.361088281554883,-5.117317018850046,12.424342885750269
-16.11480507886295,-19.142374230876925,1.594019430708629,20.362515499207333
-13.629575131593114,-34.81311396655418,9.94113208278829,33.76014613993331
-9.67687653068218,-42.58342285379115,16.25804370531936,48.92008101003487
-3.6177441366558933,-41.00370501251778,19.75555287988825,60.55090455317906
3.9991613396037247,-38.5871286555885,22.95734237030171,65.32353619960188
12.053079873767926,-44.572050887192596,28.82433595746746,64.08939877248406
19.628072869992618,-58.02080812350681,37.01336576282215,60.966857636046065
26.234775068261502,-66.19962180243515,43.06312212400609,60.27772221051999
31.618613738477137,-54.69727476565465,41.72255288542016,63.6534030829631
35.62947422869199,-20.401340298498198,31.537275378409557,68.8285701101856
38.2153914350233,24.138121274447407,16.553429482823653,70.60227880848181
39.33954924046779,58.51127069402498,3.7153282297401686,63.76339707057742
38.86789717714628,68.06772861650204,-1.845025993540959,46.452924532737114
36.65082055991072,53.312798944974965,-0.10187987385915366,21.352207526846858
32.79601833155122,28.69933784333496,4.218130890193446,-6.400492750651525
27.89925482347342,11.931725784257996,5.3469194404062454,-32.37925486110287
23.03097056988041,11.713317902367049,0.8509033507243072,-54.06988771145314
19.36347507964988,23.248756153520446,-6.791112239453548,-69.93347389214645
17.481778742782172,34.539008392646906,-12.756743825336184,-78.71995109400164
16.87915604212006,37.23582112678487,-14.184678413436501,-80.16125162506573
16.392525779420872,32.47825417010845,-12.177937463327293,-75.54872622128384
15.501698940926456,27.943242983058976,-10.0199644973685,-66.91136630199335
15.077448867128401,30.481286439601398,-9.989042581267443,-55.84386938698414
16.325271527144356,40.91428846398795,-11.9416865835917,-43.506085492509385
18.81104493244122,53.89444669539276,-14.269902089025742,-31.37334782795947
20.00603587912979,61.79212687714784,-15.551098243332625,-21.28347857843819
17.332614381366643,59.85782979673556,-15.39495585190087,-14.593963518715862
10.696132999326814,49.27630541892703,-14.299054179745816,-11.4667368351855
2.729512786571533,35.69143228987506,-12.985548059952478,-10.817863504030392
-3.5286674673931384,24.367176902036846,-11.758674364354816,-10.736736635724567
-7.126959251058885,16.45142826922067,-10.39260036766576,-9.323519567325466
-9.595904182894406,9.623485718013727,-8.667152077750375,-5.748053204282673
-13.242481172535268,1.800985242701694,-6.9519741597646565,-0.47532114835132094
-19.047049847142297,-6.074649264781075,-6.104212178612424,6.03062693182452
-25.787440223840473,-10.541783888432677,-6.728345258461949,14.657715881428059
-30.906540296366195,-8.761962937561632,-8.524801197021047,26.728892928464926
-32.435749391214344,-2.048074899849171,-10.19948364212378,41.13701065942753
-30.49695259231535,2.898107576799944,-9.865325190476593,52.92651309933783
-27.139782523935587,-2.8221520084042013,-5.883290950813675,55.73391730213791
-24.682112583338096,-23.337804001067,1.82887635029338,46.281238726965924
-24.08658905316249,-52.22007172806884,10.689011133254136,26.81997185778225
-24.702634505152673,-74.1171007134791,15.996066318014275,3.444377686721841
-25.20067045453984,-74.94870182761498,13.786650236642185,-18.228155521724617
-24.554551278049225,-53.59249874773032,4.288763540745553,-36.7008195297765
-22.393428399492702,-24.79767919457364,-7.190444188893723,-54.77425808720117
-18.911514847675377,-9.32888066951588,-13.443672062262113,-75.69648574236285
-14.664861692573345,-18.223774858061287,-10.515092882346803,-97.9817334564749
-10.314932456584652,-43.68765513725155,-0.7355981911545635,-113.56325816853074
-6.41110330725575,-64.3685221958474,8.902449546148976,-111.76782553133445
-3.369855996159956,-61.465823266710444,11.937489564641423,-86.39446779764236
-1.4686355283897885,-33.27060808187805,7.310590379973582,-40.28800373331879
-0.5161827689298344,3.540839688920871,0.1084657642687198,15.722210359001744
0.5203213804161528,26.995551167124958,-2.5321730130285194,67.99896349615031
3.1311952200047903,26.27732689022088,2.939249876970837,105.7898528461788
8.042052269562294,7.894604152560677,14.009694838962725,124.72332007594879
14.285695188676225,-12.25117128626493,24.587394660079678,126.8430844004511
19.63018324469105,-22.164284955327133,29.755649102022772,117.36466449226936
22.040014331854334,-20.73216969850318,28.584592048796686,100.45533760423092
20.95059083485243,-14.540474203391437,23.37747111270409,77.50230381936754
17.602976364979913,-9.737419967067394,17.047542403303794,49.1346665207676
14.450358828499056,-6.507966923565467,11.12974956818636,18.308163204073274
13.840130585038944,-0.06921961994544112,5.574491027353192,-9.234554828524594
16.415697106152493,13.257383694209135,-0.04799511023785766,-27.595690841917435
20.343417239710064,30.52821709444772,-5.194286772829625,-33.69454324234335
22.391372540353906,43.02524444595779,-8.255259086488756,-28.253823685689404
20.317474656733335,43.61883305471167,-8.04705127491753,-14.91491410837211
14.541083542318557,33.7140251481287,-5.409272578291882,1.3791828016566245
7.670649501616162,22.630491403700972,-3.020332275639877,16.085418847432823
2.5231730803422536,19.915273851388257,-3.374641736569663,26.27046464692244
0.3789616833140325,27.698551962582677,-6.795600871156023,30.577431847122956
0.52737485972929,38.96865726618424,-11.119163372270757,28.235049245422474
1.0456260759531288,42.17412770542029,-13.057711766102523,18.70203421594463
0.2534690992398784,29.186913565680157,-10.328087810643712,2.776511258165461
-1.984466153174768,2.397854412166315,-3.5248241101163518,-16.225323261098843
-4.134141714849415,-24.341250420863382,3.524550496721409,-33.1090121822966
-4.417952130819836,-34.097435381813426,5.924962445733161,-43.141412632751305
-2.695718920932532,-20.100002350867523,1.4642364820334073,-44.29714976449819
-1.0149222273229943,7.295705397063858,-7.171684272240071,-38.094315459560725
-2.173092072703733,27.516264057382816,-14.18005814442923,-28.803703828766388
-7.4360086767422215,25.696072670607773,-15.187382254137992,-21.177518159717877
-15.212486723921975,4.000095406660535,-10.484315799931824,-17.5317289830345
-21.690832092627844,-21.093088251912622,-4.179291568817857,-16.353784195698292
-23.114572811505916,-32.42002526571184,-0.45477678659676235,-14.192736022094657
-18.267990244404338,-24.91743845425084,-0.4293664391551262,-9.416921055316026
-9.377811717241899,-7.905492195845653,-1.93641538606475,-4.056960745978911
-0.610584748433868,3.525452019447706,-1.7857576095151477,-1.90846376530553
4.686624662448939,0.2805660393041952,1.565199336528316,-5.1282853241909505
5.741647345630337,-14.85598014702909,6.841696473104362,-12.637687655898889
3.9701085981024167,-30.727192485583934,10.960714151965421,-21.059900183104887
1.4127373449912155,-36.77474688810785,11.393618406705594,-26.642080886020626
-0.42199830115775344,-30.15200510267198,8.067101349309445,-26.881054222092583
-0.9083998611294607,-16.3366291787162,3.3194052438599377,-21.512041794658753
-0.3497162429970202,-4.034339292626654,0.005648845962647287,-12.486695747457567
0.22490054089669043,1.343157006597786,-0.6740014892153764,-2.7151199941128166
-0.13231912316738292,1.261421168428447,0.055212307684105934,5.5276070816600305
-1.2851684346616035,2.370690748350002,-0.2989185493839601,11.20248329534595
-1.9280863936921675,10.413249941001798,-3.2577616506660845,14.085817665376265
-0.715461619652073,24.232848831206493,-7.738879133868396,14.396064898808003
2.478906010910549,35.454775528002166,-10.533830203999813,12.773652726477723
6.3076612790197855,35.0463361791517,-8.880561068725163,9.91386051093724
8.703108383777158,21.147268441519703,-3.0598983891794007,5.900975222643283
7.980589968327728,0.8880148409419477,3.4753815497182363,0.3995347951161248
3.8283526188417967,-15.01995387131294,6.690865956124267,-6.078323009597899
-2.235373423794444,-19.277345115913445,4.833730176043721,-11.46371891079236
-7.5195774842678595,-10.933886725132004,-0.915467160425581,-13.2638011528079
-9.853733309564959,6.024689158782711,-7.9609076225574995,-10.465974436179732
-8.994272699439339,25.32479745506634,-13.999411103277486,-4.21075750559197
-6.376461526117254,40.319532548081625,-17.512974237354193,3.1112590918676424
-3.5119455519813227,45.362916453672014,-17.38594693526797,9.127898296913514
-0.7388129672422671,37.28859106508489,-12.769359322758822,12.348807890606253
2.550468222784575,17.03143684143343,-3.7287818779519757,12.699769090941054
6.708199229961995,-9.462295414887516,7.85031397911151,11.47823276934737
10.882272130029198,-32.669701435211735,18.22967893441857,10.273952338797585
13.087372191473147,-43.907858771225996,23.330860573376363,9.580401909029009
11.396981168070447,-40.26139597352612,21.097225146508432,8.67353409431245
5.704409847214185,-25.920681760425314,12.95855438056132,6.965613786292462
-1.2814235416557147,-8.702605634624144,3.136024230288224,5.107839545314395
-5.154280799082748,5.01184410278238,-3.800344093099453,4.487873384745635
-2.760799438907867,12.926175564121884,-5.439119526585719,5.872415868343757
5.289682386275478,16.196318170305926,-2.5476691641541316,8.739453863944252
14.762824373072736,17.20315989905482,1.8526906164095804,11.661657598409107
20.493959785540806,17.230422128012094,4.697741803146537,13.132916356321669
19.522570102081037,14.87350459287916,5.035741071324817,12.452698717159715
12.632192012883317,6.408491584554197,4.683882282228889,10.359940581142855
3.64854926407893,-11.130529998599238,6.727161277599271,8.670934545565906
-2.950062988611119,-36.101935189598905,12.813880926036687,8.738720454050304
-4.750659565173158,-61.42470566019402,21.430742805115706,10.139162790321556
-2.661194355621151,-78.1782873871143,28.687320202625457,11.159883991658818
0.3076129914596136,-80.60490289425461,30.91707754895667,10.571550267870434
1.689267253287044,-68.41054301227011,26.87349800327153,8.600016139695118
1.2370814910237262,-45.532697078918275,17.995840697695655,6.258575477700444
0.31665248275886976,-17.59655639292178,7.0748102439579315,4.283041532070278
0.044455131468202076,9.967827554993741,-3.347418984379386,2.8452546639714615
0.11796219859957835,32.740131310526095,-11.811670192962326,1.7095428955202385
-0.8249672724292283,47.22576525562039,-17.73751701676848,0.27085342439859694
-3.874407948554637,50.589461336738495,-20.663440154368214,-2.118498025298564
-8.582808220221263,41.84783519055252,-20.00112818945743,-5.310310041065776
-12.741201084841785,24.81848364282901,-15.983767248583215,-8.061839625275553
-13.743133748854413,9.30183959292308,-10.859455642477185,-9.137254022007095
-10.823310946601353,6.337105708382443,-8.351065787217038,-8.740157760172556
-6.134338035475356,19.476882870900525,-10.95123372593043,-8.497351322376268
-3.2196857527092813,40.33836112221798,-17.412887022668748,-10.00492634423449
-4.048937651147172,54.015954062725356,-23.214870451771905,-13.600884583276697
-7.488345651633226,50.186371319884685,-23.923297301691406,-18.32428278098983
-10.63035476477892,30.305891488918686,-18.53197946662084,-22.539423465931716
-11.474904133708042,5.732162055982297,-10.111447127450976,-24.66582621298478
-10.400601082181476,-10.412279866423843,-3.5989331744253517,-24.040631096205438
-9.382887844968705,-11.253411882867168,-2.541082370957129,-21.485979950664813
-9.900531497743442,0.6138461137243478,-6.853352669245611,-18.65113746215583
-11.2705039056024,15.708169567428655,-12.812543361236393,-16.36648949607107
-10.81663128840928,23.74712063057606,-15.28509011421983,-13.785227150744404
-6.100225608206913,19.275148830781013,-10.955224380863868,-9.393358653303284
2.3573281927225938,3.858778307616615,-0.593677984375181,-2.7029967001641055
10.46586010924701,-15.424006000233772,11.151420897189626,5.177992463012483
13.237609571606004,-29.642721796250026,18.43249824691486,12.240054247935907
8.768075643786862,-32.3082047066537,17.75301594409439,16.473910821057718
0.011017541042304294,-23.02083098961394,10.223246279395903,16.60284612877868
-7.25864905492483,-8.48056128197103,1.055262396348618,12.872563436576664
-8.554795707136083,0.9705449835453951,-3.6139827592158547,7.352644433567966
-3.6449817585624213,-1.8912621150473028,-0.7196030513782868,2.8681097213665345
3.619524299786894,-16.0058860871229,7.71554327016209,1.1461112610822672
8.27709393317211,-33.078366690953864,16.280623779959456,1.9880536854224633
7.906461633788769,-44.12173815825448,20.39467323793579,4.127240517945388
4.320825236127515,-45.65009518606196,19.51667122396506,6.493398178950472
1.9231283254545812,-40.43587655607826,16.69370924305176,8.634874564963054
3.9630048590252325,-33.29957758763766,15.225090122237658,10.499015339576225
9.8277411837078,-26.54379560170608,15.67668327908908,12.155013663855932
15.581585257261343,-18.86920479813505,15.690883753081875,13.363855256600353
17.024204599112473,-8.040219444700567,12.357641696280178,13.095195726929648
12.626857290006049,5.3695568565131655,5.015534369364782,9.90265134645197
4.391055609408879,16.714466141138875,-3.7253602777880457,3.3835701714418525
-3.484231937185747,20.3482984108322,-9.637010148403686,-4.826962620019573
-7.104504291644099,14.852349773695586,-10.075446794854152,-12.001538057921207
-5.182410934543041,5.290417272434414,-6.106693074808424,-16.327818275393103
0.24867069364214026,-0.32240293073636406,-1.6379038195562774,-17.804480908680702
5.346929804485034,2.8332333657011466,-0.36006371723644515,-17.45357020017194
7.190753271867946,13.343230002373618,-3.228036883005464,-16.21265658911045
5.647311710698868,25.505802592386956,-8.251069770819875,-14.506578307102453
3.1327584272789406,33.50853834548979,-12.134916875673206,-12.172742701387877
2.7956621628425875,35.04453997669423,-12.473091754646015,-8.506355162252587
6.4709159642082605,33.343445984873696,-9.526357135198738,-2.907759410487945
13.375018859269671,35.929485234587744,-6.49206552680775,4.057042435250855
20.11561990744693,48.443700218681045,-7.241289106760697,10.51556731947839
22.36964862280841,66.91593047521518,-12.540434455994532,14.658156471790274
17.67128892987902,76.7966266662784,-18.22388287296332,16.23493454691536
7.433006517641288,62.82925920488489,-17.876457740462815,16.536778201293078
-3.6303534125399275,22.596626156410924,-8.228850686753717,17.069294292376487
-10.483651270779458,-28.783017798684373,7.586107442087191,18.381696786967794
-10.893943098964103,-67.96916459010531,21.962137362355783,19.80979171059283
-6.426263455321511,-79.52696320655112,28.332786639961256,19.93179276482774
-0.889260620954006,-66.16872974107679,25.77623041835599,17.556162107067536
2.3654968720370704,-45.37416798388706,19.17051191832056,12.922987900673522
2.314774081473216,-35.26046740800776,14.903820114594481,7.9691817595702386
0.09497184724176874,-41.011345945437256,15.639757210736898,4.792526062640008
-2.7626957613324694,-52.753127637472794,18.48539532997871,3.5714820717896867
-5.819286618581447,-55.83415052315377,18.053537509007164,2.3795757827372226
-9.417246525174603,-43.49208038665168,11.490420181899767,-0.7229003801421624
-13.219013251255683,-20.752604604252006,0.800425438383127,-5.773279874624957
-15.739850866778692,1.8721411175361315,-9.287639884614244,-11.239886679481483
-15.722865365700342,16.650440712951244,-15.186862826600608,-15.69988024487752
-13.65804300087392,21.278371037805783,-16.228862621494432,-18.66406578112395
-11.41375331555935,16.699737034623077,-13.637296875341418,-20.095206644171085
-10.32653905716676,5.667955079439181,-9.039966563992476,-19.85007739233209
-9.976667647492095,-6.203753569953046,-4.286413455211652,-17.756144895679054
-8.918417373840485,-10.614815323134408,-1.7642377506521538,-13.950763672769657
-6.368929207919108,-0.7615205172166731,-3.685301816998025,-9.16748132495909
-3.093253950388778,23.09918474473508,-10.472335315619345,-4.896442682522784
-0.8220743402671721,51.79242542436585,-19.752560346140008,-2.922347818188029
-0.8379098571920047,71.3750072774338,-27.076003789381733,-3.9706160918802214
-2.8531208395423353,71.23852852014137,-28.25484372476058,-6.627303222081532
-5.1030280274756885,51.18000447918163,-22.091497537269234,-8.122911611331654
-5.746742754802184,22.047541067479127,-11.512292075466801,-6.575684014028398
-4.4379817472555265,-1.687684206800938,-1.7210939602831792,-2.3862558417761353
-2.534962013626631,-12.178618654770672,3.546959462362465,2.470961014277118
-1.7311054578244434,-12.621148107209299,4.461275615177353,6.0128642455508645
-2.549167375640979,-12.424030889684664,4.113254433086863,7.057590422168876
-4.056142763421172,-18.440006684780784,5.442578242411768,5.4012016705922
-4.62938199742855,-30.039716702135834,9.094812029955383,2.1139138108808924
-2.860298249427231,-40.605247052639804,13.539107098940336,-0.5176689388157273
1.6939729872404454,-42.56399085306662,16.433954077243783,-0.24841446687541727
7.89567227110424,-32.241989670659656,15.943029827237824,3.412170288001276
13.193732217287167,-12.310511268149027,11.668914966624852,8.768873715241117
15.170734030976828,9.299369273581426,5.110210351622233,13.153795073449686
13.492185199286824,23.628132170722367,-0.8170087491688178,14.446979241507751
10.251444801488642,25.56068021393675,-3.3285126404374297,11.848020794628844
8.148063466574078,16.464647821716106,-1.585156846244137,6.026619221618078
8.30712787832001,3.5860452969343877,2.4744329069317095,-1.140060813263321
9.802984579521548,-3.3671862681509968,5.074425907959996,-7.443126857712666
10.9296643766854,2.250873685258689,3.117389032859045,-11.440174398186707
10.675653374629375,18.627100513472563,-3.1640355648273433,-12.73154664402879
9.256697205952994,34.78498101838042,-9.628659304842705,-11.311652353835072
7.691615720830337,37.44628322468693,-10.918657528627252,-7.257412727009701
6.882577206166096,21.45064851106675,-4.797786990123777,-1.4015970100365391
6.777878092202771,-5.29755250740878,5.58643626376179,4.216218717113617
6.3404580123630545,-27.51149380796506,13.884881845635775,7.357968849252827
4.554962898313928,-34.2080861173769,15.492929675970839,7.217277876659531
1.5503848153625033,-26.285272463232136,10.911553398267108,4.837392379688509
-1.4020513496757865,-14.08552730556138,4.738678296025324,2.0554330856724814
-2.9905930222830257,-8.051570130610765,1.589192189286045,0.337752289051018
-2.807891795167338,-10.774984557784,2.677202385078887,0.3359843567238391
-1.3378906353625128,-16.548490014362375,5.646239035627865,1.7803599431292372
0.5586343235097653,-17.885931505887626,7.215711080454456,3.526757993920353
2.000193319475606,-12.776528651851015,6.088305451506327,4.224877108860047
2.3360449602897466,-6.043171109410959,3.682848600294162,3.4070263632280287
1.4838655782711914,-3.8295742099708088,2.303545832963478,1.8555566089530562
0.02020563393266508,-7.1531312161170835,2.730365415079958,0.8434057632498747
-1.2789706962308773,-11.352046629725855,3.7063844263239276,1.2528275979356818
-2.0619268478161086,-11.65063148599584,3.664875767093155,3.3197397019309105
-2.605175455816862,-8.38375761452845,2.538914705345461,6.475286166842016
-3.552883379824189,-6.331210286937734,1.6017322445823245,8.989561654814233
-5.462069430520937,-9.339480234496005,1.7530035369883032,8.456112721315986
-8.25559765285427,-15.792905320800406,2.3102741575391152,3.6938627064651
-10.815358147129567,-18.92731711625918,1.488806752184948,-3.6112527581191913
-11.364865854262378,-11.888132659902347,-1.9997650136636467,-9.68807402223653
-8.861053466861337,5.816723166673189,-7.52082905582796,-11.455649983628074
-4.285567604332029,25.65308585065355,-12.365337770508262,-8.616574314604504
-0.29846470896477517,35.0089758715275,-13.382691849597292,-3.42141810246441
0.7606594439887273,27.33018470583786,-9.584160474802287,1.082767965458936
-1.2673566840274981,8.630155236020528,-3.4773817598307217,2.8061959747944334
-4.30933462163453,-6.631198469406258,0.5857540822652566,1.6731829089731503
-5.729635516565256,-7.285399223749771,-0.062423720390103764,-0.41464845244025134
-4.316939513893422,5.742254949117536,-4.257801722459419,-1.0539808291611656
-1.2146124957098055,20.93994271064743,-8.215494849596844,0.588187899425874
0.8628467552902168,25.86138623615292,-8.783803766835156,3.094857432153441
-0.19490384237599725,16.798894072312315,-5.821404077353472,4.293119771822693
-3.877440671078817,1.53043449460931,-2.053415241896019,3.1985017644895306
-7.1889564754354565,-6.643837570321001,-0.902075731872287,0.383401861518633
-7.276337924773312,0.47877268258972705,-3.9193979071784075,-2.992724876751812
-4.208271805582576,18.757213372967446,-9.506056609382375,-5.9042606029925695
-1.0121397733756612,34.327233056570485,-13.90371523003511,-7.560895962110761
-0.8006282235453267,34.64834098562955,-13.936688390721754,-7.698413316438067
-3.864459918245838,18.619715614969365,-9.40676522766997,-6.98079043507738
-7.493576102786598,-2.9983474609356198,-3.1101616631621662,-6.488271678403844
-8.409251066995635,-16.581920875873397,1.4630066002590845,-6.428022219056583
-5.400501694286875,-15.78068015832739,2.662087435768285,-5.702791059324717
-0.038898096448284666,-5.034214565642557,1.5083795084005278,-3.094887359473077
4.791822359358113,4.773003490485234,0.6383249967452953,1.3010976033971569
7.190270367118522,4.334645025175578,2.4208004488507364,5.968026766943248
7.498896926809651,-7.878688564050555,7.379159793669443,8.998257001806062
7.528718614698963,-25.053697024080904,13.728655418710655,9.147229954767923
8.56872373947355,-37.25057972462564,18.42506684914838,6.471441094456445
10.244872042023857,-38.33783308258771,19.201865270646138,2.547024712872169
11.359059300829514,-29.27118847627426,16.10444003378427,-0.17244483803144167
11.522118525198128,-15.876839176457448,11.272769471711785,0.018819157580022516
11.53098789122697,-4.171132787267735,7.2526071306580375,2.7072678276621103
12.161067558871835,2.758633582077849,5.313570575394688,5.69095822123933
13.030665549199254,5.165849012886236,4.941910418068007,6.682913733620404
12.911887511792967,5.4436764191872005,4.572280183303972,4.673769965769148
11.002974830236258,6.128406866718041,2.940469318471394,0.10826390416740916
7.737856876178276,7.721581034323974,0.22389193773662128,-5.516849742543816
4.421986014265812,8.046521420990482,-1.9464766066678325,-10.158870469038408
2.07015684578002,4.463574730509599,-1.9443522108325073,-12.13717838550726
0.3777321376050303,-2.8212399451017562,0.03480822797024386,-11.224841446300191
-2.1790010593683706,-9.947666975386428,1.7098455715253769,-8.779013967360394
-6.784813717171968,-12.079519779968841,0.5620087338825134,-6.519644695904102
-12.448429582908336,-6.802520153817078,-3.9130412591652615,-5.23560065051747
-15.957280251256666,4.585161104705405,-9.698096314473094,-4.680650846561171
-14.26204237269347,18.043226615254902,-13.806960212517938,-4.257922088396366
-7.248118486377211,28.890476316935256,-14.405646995061366,-3.4211786923400407
1.8134027820236613,34.21091426626579,-11.92077922858947,-1.7752431448983392
8.501702895719104,34.25296603109461,-8.53901289286611,0.5624802505940818
10.061381903434464,31.205409987037964,-6.459418521404939,2.684885071528811
6.74887983325399,26.059908178829843,-6.040712279635097,3.50258606419709
1.3308699067384815,17.094291002259617,-5.364270587893536,2.8388204802796437
-2.6282098213617187,2.3164197906320965,-1.9138379812516433,1.680124606705775
-2.877663691412793,-16.412176158593986,4.817534827131297,1.276029009892875
0.10990046339938206,-32.323393694204434,12.175775827650416,2.1872735236931615
3.5290140622704875,-37.805743841322524,16.001309359512742,4.06208382550175
4.318541226260739,-30.67403430614315,13.933862906974143,5.817820746730446
1.2936844777787084,-17.22644884512437,7.580712833911383,6.010138330494584
-4.275720919484003,-8.589031720471029,1.5436204338059465,3.7790765933157533
-9.723063850369794,-12.02240621187186,-0.15564310875449766,0.015423723038574248
-12.61573444648203,-23.89378330616224,2.558683810874041,-2.7498011680899888
-12.0276642630174,-31.356175552183803,5.632408117302371,-2.2673861045659987
-8.97853513674315,-23.233180094965775,4.479308474452715,1.5264210819576844
-5.718698022361617,-1.4840271914916103,-1.440268988018928,6.728165608003817
-4.087820223494209,17.980189561608988,-7.345072969360453,11.373960892510405
-4.195363056376731,17.68896645967166,-6.9317073193781775,14.76510697350385
-4.688846626602734,-6.141423511333196,1.8591328961037916,17.184832169059323
-4.2694993397194905,-39.57758733842389,14.558598556299422,19.072158307949195
-2.7667668048924656,-61.89259118083977,23.65078344857702,20.716724013388983
-0.8364777363020987,-61.249297483915974,24.483044520833054,22.232388197931837
0.9048046054385187,-41.58274608901575,18.18897169793078,23.39240225741335
2.1621383390600744,-16.446099011337118,9.559984226392725,23.65817923735953
2.686688067165081,2.8527416200963067,2.592064275336418,22.5767687774916
2.1659261072033535,14.075085780124677,-2.057732151621553,19.963348887764557
0.4738367559758457,21.211800325613115,-5.936543216255382,15.634772097718603
-2.0612829622928954,26.811036796710745,-9.844477785853226,9.42795885391152
-4.553528213902526,28.637232729257086,-12.491865530955318,1.8148693349798182
-5.691242611939787,24.407718085127605,-12.287458507445336,-5.93767733076094
-4.376513762130716,18.12955577382606,-10.08610586374342,-12.857449822432994
-0.7736526410635085,18.57857619750907,-9.248255712252327,-19.45616168666036
3.266049216055426,29.85682163828419,-12.320196188735482,-27.29831052324455
5.353753864031971,44.82355117184454,-17.886865756875956,-37.2101678575682
4.578275478351676,50.087207053510454,-21.333227283671494,-48.08234792079668
2.4130429397874615,38.1661927960021,-18.93880216193774,-57.31772327978767
1.5148392312287116,14.670457668151029,-11.229560670660902,-62.193615817334454
3.524155947666135,-5.673525794050511,-2.68830460288326,-61.16048412081917
7.753523121890022,-9.639610455119993,1.4459136588142774,-54.678383577119796
11.642010609179001,5.621106186032007,-1.3221527608854804,-45.031310893506244
12.555292537437404,30.609576139058426,-8.993709150098066,-34.64547879498119
9.784573408636343,49.06966440758766,-15.97571615110971,-24.040325637901812
5.300381930745574,48.079985376660545,-16.425761270053293,-11.701209933682787
2.346500629979353,26.551338022680483,-8.28242966967154,3.6290815037935364
2.7377123392419045,-3.883727007787312,4.898716189629006,20.712798216831
5.2959142740402845,-26.548664842610332,16.067866604762667,36.144406192349855
7.016896039128467,-30.473972225131238,19.434184022910788,46.70244232572941
5.792756554839165,-16.730042437708565,14.272022335118034,51.18615734681063
2.019697883362633,3.3586523079530655,5.025514617553393,50.45526385074881
-2.1247592122110515,16.09357279907039,-2.036825360143092,46.42931845952945
-4.593285844238717,13.861979543624205,-2.9500844506035744,41.000216031355485
-4.830182967955199,-1.1072321848163118,1.82717468029278,35.11598497457105
-3.8795270281213474,-19.64519309210081,8.394546789311642,28.44709239339961
-3.4577394566408346,-32.664924504267184,12.515639878406253,20.195151458218103
-4.5579365652283155,-37.012586822208355,12.572762413673434,10.461989849653795
-6.516400297701787,-36.036075652717294,10.254826332464601,0.6187580628122695
-7.475489854509228,-35.11571644229247,8.58284414250018,-7.757009200462452
-6.047494041587622,-36.30339748261629,9.039897608052346,-13.959895656656217
-2.625838564583047,-36.44802784590412,10.27324981641672,-18.064852949822388
0.9493225656642837,-30.092409837992285,9.384964426408047,-20.289412286202595
2.9052631243983567,-14.919734388210113,4.66267913128384,-20.867654753288573
2.7149596233061604,4.33182945255093,-2.438411484674739,-20.17935663854661
1.1797171115971854,17.180729010124097,-7.7026738432841375,-18.40248197756553
-0.19044548813827153,14.396507567656865,-6.976750933681223,-15.105263299772583
0.0234877824089077,-4.013503370609174,0.4694702045409204,-9.677321922851952
2.359334799051316,-26.929431602786174,10.78246924576188,-2.2632289850461085
6.046595372786549,-39.05551780593732,17.849586051336708,5.983794539605753
9.433757679421507,-31.410471958878656,17.426885093650792,13.533535920915615
11.093389938918119,-6.958938934266528,9.802492863631306,19.14867947575481
10.687636512926975,22.21780471336306,-0.7996613125332873,22.236745569546454
8.970436730143057,42.84776279215996,-9.09911628263014,23.19337018292553
7.158225193737304,47.6759226295969,-11.706099850973407,23.416032908056245
6.134276857910838,38.18850965561677,-8.611127689617048,24.23697001425109
5.723217025912028,22.059171456518293,-2.7469172351685804,25.40465014082279
4.478846048127983,7.248595646628788,2.075537506987499,25.015075653558053
0.6312932534902909,-2.9793005044111247,3.6405594894040214,21.350289198883353
-6.118087265661642,-10.31187607940084,2.4416261221018374,14.536672823673888
-13.681048767701459,-17.390403198554537,0.5976488498192698,6.124376732800121
-18.906409333768178,-23.976046675486028,-0.35203355671348846,-2.5322596929253414
-20.114025891371398,-26.787834552177067,-0.7702289728873823,-10.930932990402807
-18.259022058045506,-22.548542215271038,-2.2806093775733975,-18.765323304398724
-15.615777982241173,-11.54877196433733,-5.781714159878838,-25.407189432756688
-13.595290405405152,0.7390104282638861,-9.860630888708418,-30.247953007814402
-11.943803801846697,5.8519861026614866,-11.265744257436173,-33.11606790280225
-9.701434235302528,-1.5263527000088082,-7.602614785810133,-34.14544454501359
-6.512769034453259,-17.405217426250882,-0.18592063510933732,-33.46597971405226
-2.9720841918135066,-28.801141599388533,5.931226132728356,-31.036633084362823
0.0757904227523323,-22.81444721171583,5.647312997659737,-26.44750224988329
2.4115483304000995,2.0276752177316713,-1.6079334169552837,-18.985977226138488
4.538866971261517,32.55686475349838,-10.753619593362341,-8.669978553540371
6.798212554404355,49.77751406757975,-14.868407808883925,2.326790987881511
8.441128895814877,42.66696576126512,-10.68175634910624,9.892206292620438
7.970803674167607,15.64281423850159,-0.8777540361251358,10.66864687006578
4.771639765138661,-15.486393441119734,8.477039896061422,5.040409834563597
0.3194694887182837,-34.641697731823925,12.625436525920781,-2.5841145532822365
-2.608792066883964,-34.863484466655095,10.907902002551683,-6.570145108508158
-2.143576562602851,-20.11328573742061,6.014782704336291,-3.5748291304127155
1.2220103155330473,0.05857919707265425,1.1394405011592996,5.561133599061233
5.199425309378286,17.59246298993807,-2.309426457621991,16.289021260327292
7.516511653108606,29.00521984425465,-4.7256674258922216,22.860113754307896
7.41547647172597,33.45874017022485,-6.525289359658745,21.783614251741074
5.976954330211009,30.298489812789533,-6.844822140544878,14.13784369921641
5.212039670686845,20.318893797058678,-4.51637748281693,4.794363394979909
6.394471331839019,8.722303702003229,-0.3044356124600834,-1.0237380345249039
8.791299119979186,3.844723155078581,2.6143147532808437,-1.0740559006158066
10.105502871705095,10.515533788555157,1.2096408568643204,3.019013932031545
8.547389391013372,24.53004130133052,-4.233783057818303,7.271383263512285
4.602481163254661,34.73856103311108,-9.789088209407172,7.838806305603746
0.6788188473934623,31.528991322565187,-10.929247409053975,3.3488627351864517
-0.9503452118172184,14.452936621300497,-6.187759369492321,-4.008591527818293
0.16585355829660756,-6.972430890117046,1.6129170647633562,-9.795200605079561
2.654373934725301,-19.785997706884277,7.403454312976223,-10.71558634497355
4.509487898399122,-16.954610771578462,7.591159121783691,-7.337466065162045
4.321484201216795,-2.772696783349519,2.699012943573804,-3.39540901124681
1.9201394375066372,10.387134760770872,-3.154745109359059,-2.2553429246239474
-1.71688908711719,11.801362531138867,-5.572602033585983,-4.002539296789411
-5.214341033152125,0.3957622509059815,-3.199733115352594,-5.676174126764265
-7.655567538491707,-15.555165209166365,1.7010423663902114,-3.9503652719830336
-8.776941120874422,-25.66734740458517,5.539197471045921,2.1842053960619774
-8.506213807841295,-24.78300165971028,6.220047499070983,10.533912973167237
-6.729146472936151,-15.363942263872557,4.276660542634841,17.044947051619552
-3.7279779023319763,-4.948485507735136,2.020225194451782,18.584823641870976
-0.540046340239921,-1.3740409371568798,1.8508185642171693,15.200552657196715
1.5554908649402301,-8.338219396412372,4.838256179042381,9.856026390259258
1.958317020149861,-23.18965339336479,10.064774129962288,5.788525304456414
1.0072014973214614,-38.13110542960514,14.931742042752095,4.051397421882465
-0.5460339933158636,-44.50286258807662,16.479714082537335,3.4357930923793254
-2.0313214604196745,-37.91153649064652,13.223335817516006,2.188954832585674
-2.9108669338195923,-21.131125853121645,6.3436564111861,-0.573439550353901
-2.7890468579501193,-2.6633440428224056,-0.8200678310079034,-4.6181978553691145
-1.6417760559396504,8.739974810421847,-4.923124153263131,-8.871426335486662
0.0788692671273769,10.302616439851972,-5.002729110059507,-11.867514379383676
1.686972203105555,7.189479162906942,-3.1777758889698062,-12.610892790212839
2.5542093604439735,7.414518558563012,-2.7216614578923317,-11.372571720556591
2.259407308627209,13.212798077216346,-4.781809597658258,-9.355215291073554
0.8147746023324535,17.347762513133866,-6.777703916728378,-7.395219652239323
-1.0696728601186043,9.519548015595658,-4.5643003192033635,-5.297330166713208
-2.2164851647350248,-12.217824559414552,3.1808592036057903,-2.57076444628938
-1.8143072217398064,-36.529423788665625,12.65242894359788,0.6249888689202223
-0.03595183496876829,-46.32147455772589,17.405187897610162,3.587491286983624
2.261208120212379,-32.528241621210796,13.641872494624346,5.770803183375059
4.305147793394558,-2.0615746175934513,3.5220870503133495,6.9852826022938155
5.744875925302932,26.623274242362026,-6.33441804302968,7.176498157159291
6.4812226524416765,36.59420622953721,-9.728557771927987,6.491010629347654
6.566618352908301,24.34880296168134,-5.292761810858566,5.4429636007964195
6.255371579541285,1.941296434682928,2.710601081623145,4.539057080434297
5.800984293046103,-12.463538575267307,7.7117363463245585,3.729229489101552
5.126541853080736,-8.489900956296399,5.814264204797763,2.612195145088029
3.988023619175671,9.542010307222842,-1.509133724630787,1.168756937152454
2.554717609376808,28.220340554408867,-9.196129930886148,-0.1497199053563068
1.4875199085216022,36.89723018242853,-12.992781765555044,-1.110047260451043
1.1756237100488935,34.41079176217454,-12.315724090487004,-1.9738868622642518
1.070594516612115,26.13894559634125,-9.417398978190027,-2.8853791299324496
0.05954559207654345,16.795669690518633,-6.514003230820728,-3.4386381679741285
-2.4755876045048892,6.688404343101791,-3.963691657689807,-3.194886534987434
-5.991577889175321,-6.005534340970355,-0.8568171556614299,-2.3154463225884894
-9.003416514896807,-20.058848879692924,2.997345413880856,-1.3452146564634546
-9.941667041214977,-28.550618050046715,5.754798363823987,-0.6338968964611583
-8.243660330624559,-22.698454384774877,4.43731488027777,-0.2930260173554099
-5.099848859138002,-0.618424618341754,-2.214399997349471,-0.37191922489283685
-2.989505498824273,26.88047074773459,-11.354303836617518,-0.5204042156474177
-3.8084940936755114,41.22398633183446,-16.929179472169857,0.3241384270305664
-7.024076724846421,30.047212626436078,-14.034640399316869,3.1457259410497866
-9.85044104661707,-1.6360814614702432,-3.2563917697548654,7.4371985648339365
-9.61782639580358,-34.053761296148686,9.150464654327836,10.941202963843757
-6.143040177766994,-47.72263752226203,15.83437743627985,11.103792556995904
-1.8431794147225051,-38.1529263416169,13.885216689634015,6.792014383794786
0.37107810771784605,-18.12039159029872,6.722808934031968,-1.137044709765102
-0.5980561499315219,-6.409166684993518,0.9920262862117303,-10.305577589702757
-3.356501579164759,-12.548688393970123,1.173330153636348,-17.699887743480616
-5.212257428282154,-29.38589210617996,6.157911982892002,-20.897778958574136
-4.199621650148644,-39.11151191415596,10.378623658960086,-19.330509484625324
-0.5067713292708582,-28.207241618549176,8.616116159900665,-14.484737524020714
3.7016482655212783,0.7327288631960258,0.567988220341177,-8.613315113960867
5.926261157694813,30.766128657270087,-8.874154390528272,-3.2834620683828364
5.083500735747526,44.94635797312172,-14.060805307332549,0.7856128930584363
2.0019235740055263,40.277859676134966,-13.554597246122015,3.0687625735211057
-1.3729388117851433,28.405040002064997,-10.759320697645352,3.2265053292728285
-3.069808145962784,23.30388545475096,-9.835069838025033,1.7698251850163778
-1.8546237135474768,28.694662527587813,-11.422742687262428,0.09165672183903953
2.2329834200924283,36.62359212699587,-12.474323771148851,-0.4777561776242585
7.685089014858871,36.52447683798394,-9.761137437237688,0.5478352267569032
12.230564088515289,24.840231914545434,-3.0751392156548456,2.875967846132528
14.313274188858438,6.873381190565471,4.815954899796231,5.714115217898352
14.080785589815036,-9.182692554071014,10.836427564187938,7.823343542185878
12.886912802664796,-19.408285276351975,14.049830427150962,7.949362484331798
11.902671917995264,-25.65704642025635,15.66453437759465,5.850497811700055
11.260595982022018,-30.546114220766434,16.842035566986667,2.8194695096777735
10.292644089207725,-32.16533177032971,16.76969645800009,0.8040637822525941
8.286440511830413,-25.309216739953197,13.316759064298271,0.9474665593164895
5.099383700664483,-8.432452584414099,5.819680218065115,2.9861168858489484
1.3902317563817783,11.725658709177102,-3.0605967994404786,5.6918650105979784
-1.6855978973165533,23.662709363676203,-8.703958973103374,7.575434939690835
-3.2948615851605543,19.574407148381564,-7.960698758364351,7.548147953968629
-3.593314716189942,0.788154401208671,-1.3905523559594801,5.629803257278705
-3.434702048100411,-23.772075373200202,7.460030614499035,3.1458619098831773
-3.3677016434731812,-43.45420608095858,14.587847268696041,1.7580809426576165
-3.1192621828418083,-51.197512688710475,17.58598231330734,2.0605529292627627
-2.139561681295398,-45.59353034507018,16.117390036818456,3.3136747436175136
-0.42861929233675966,-30.03846114703707,11.322109027633399,4.475716050505982
1.3038091936846512,-10.88156351840684,5.143508176328965,4.99061561995092
2.093089927089452,4.200770668454645,-0.08851826241955844,4.4759799927036825
1.2180005972360142,8.342953795370708,-2.2477936425829115,2.3588359569663773
-1.4296462004610238,-0.7130990058558906,-0.5717809742509535,-1.5259826582571068
-5.09318747645586,-16.864786205940575,3.155935405371577,-6.1765335134376596
-8.35474480394757,-26.621009314224015,4.82824486664181,-9.79617245942398
-9.965054582589305,-17.34316997615082,0.5291090788140442,-10.998494586098563
-9.620157709258946,11.917416415178865,-9.921145089125307,-9.534577652299722
-7.864227861866813,46.610723237626424,-21.505961241676214,-6.173396239558927
-5.383564257509964,65.27794203275604,-26.79992252583783,-2.3144270978373567
-2.692557566446918,54.943500344901096,-21.428816487190854,0.5413394776262308
-0.42101743770011424,20.79261493666929,-7.671751625830649,1.6869034992479963
0.6174817517444605,-17.786291185231782,7.026829416258208,1.8168731579965502
-0.009622030806710391,-41.01391335338343,15.331154653326362,2.3193824510819243
-1.8618101260310855,-41.05611304272732,14.622283491950654,3.7282718747970036
-3.900893879061141,-24.196948184976012,7.607530669430356,5.149055608425224
-5.1933446732105555,-3.240569596578011,-0.6938990639284154,5.326617782099747
-5.3179152271508086,12.076931986955943,-6.53581027321451,3.9302944418958092
-4.374195651131791,18.852898435784844,-8.82278983586672,1.665772480746468
-2.8433110935589667,18.088902544658293,-8.037046546879886,-0.3930218785324243
-1.2734653860995293,11.16419064333627,-4.840888249308913,-1.2626694456851335
0.15969592497496282,0.8483197617461304,-0.2751060141903978,-0.3629621368144934
1.650436812522394,-5.954102093251288,3.1714811892637,1.928790146581006
3.0511018678736823,-0.6368428655064952,2.1046245176387357,4.112119623458332
3.3633481377381975,19.107893935479158,-4.968394457476888,4.541597126334502
1.521650922315323,44.29251585466709,-15.289363955326646,2.771918459382345
-2.0598515182279615,59.734171079130384,-22.97805980233419,-0.26214039719409143
-5.03312442983151,55.40879341014906,-23.10662595417683,-3.295980701202767
-4.614273371982559,33.6176237614303,-15.134076657560916,-5.606358013236838
0.24152305256180925,6.563004508583503,-3.0372923702743515,-6.995078104663492
7.876165027640638,-12.132821660421536,7.3762293156162055,-7.593225454091254
14.779220796622047,-15.394687277619996,11.790804504854107,-7.955049962772758
17.5164989079446,-6.1268390073620695,9.577385820663489,-8.83757641768019
14.636254605460714,5.069469278972645,3.934686278533374,-10.413364590734659
7.542448393737352,6.8961496125559165,-0.23422797838974146,-11.881317791954638
-0.33100474407816044,-4.87438127224123,0.3582179951262705,-12.157451979767373
-5.655658912621531,-24.393691953302252,5.176730276057223,-10.780908391249369
-7.071283180311644,-40.05730155141106,10.573004920968796,-7.933785670497433
-5.379206802472727,-43.06896807243417,12.901938610588562,-3.909342558513232
-2.310298631503093,-34.01370073382139,11.532690855883507,1.0016945287693064
0.7114293833148401,-22.708481626703325,9.353670321203932,6.2962010189607005
2.9339167887544937,-20.978649010399337,10.303207771695584,11.41715789793777
4.0593109847579445,-32.84603628862778,15.68716666941002,16.044453495110094
3.991346970696534,-49.54429684206009,22.189959580866187,19.754848640166188
2.7030421550476738,-54.732120531099795,23.671708167250724,21.46348229771308
0.3091215192470182,-37.512635428743565,16.040055397783693,19.8707729841928
-2.5575257817969947,-2.921214671252083,1.426709693408355,14.793219478994628
-4.490159303657725,30.020405605563816,-12.348542663547224,7.729328688527167
-3.931050471318329,42.14923646578852,-17.26783423424232,0.8899639970453246
-0.5441762947228508,28.46729354906647,-11.162796541895041,-4.100202191053175
4.022231100248141,1.1535178339154215,0.7759723488769128,-6.6009634123624465
7.051905452720554,-20.279504282226767,10.066880029929894,-6.820432678557728
6.6935356276384566,-22.997551940661058,11.000812811175793,-5.845119890445135
3.2064947583820174,-8.58566995500875,4.105489756447001,-5.3638116017888615
-1.3919765440517986,9.94084240430784,-5.001017932538546,-6.531130159989532
-4.766271775012218,18.569740247840976,-10.017029858784865,-8.91699113171185
-5.702480948508708,12.225121503351899,-8.332152327775416,-10.899251262409575
-4.700574409952805,-2.8954169872876925,-2.320294028879298,-11.127242109902507
-3.3453008730306117,-15.466118917393095,3.125150321744706,-9.404017006630834
-2.846845565267152,-17.556105625362665,4.447908927669883,-6.374000126202647
-2.9838072292462665,-8.418338342000755,1.3884400747063674,-2.8826444100536635
-2.502136045256861,7.6748547689132955,-3.9647714333880453,0.362837672782111
-0.5337799796321759,25.346032697216195,-9.255376166553283,3.064675777484623
2.5180808030732975,40.485764876399216,-13.136264617155637,5.459965701011572
5.410352287666555,51.34877159990669,-15.530309683790925,7.7446290558537925
7.011646649081437,58.74941716080033,-17.34420618085261,9.215681876285142
6.742247915497318,64.14895018680939,-19.52697236274934,8.55993255687684
4.547515099448135,66.24594113970325,-21.65810148354267,5.467350817279135
0.9366924658800035,59.97172214518316,-21.45708774018152,1.6055063220312569
-3.0203360764049454,40.43169018866411,-16.364204016761356,-0.6061815556497988
-6.148157749934766,8.790102822757248,-6.153086283712455,-0.20829676530073257
-7.790196673631405,-25.73391537867708,5.964353529104812,1.573702951894461
-7.9204232811418525,-50.411116322942554,15.097220527595525,2.6562758594048184
-6.7644792644629,-57.20354295943557,18.055796937520388,1.8446485231237064
-4.588337954419442,-48.51611116502782,15.642126898721475,-0.45791321588029527
-1.8321969626226235,-35.43447801020177,11.896701234602553,-2.6476036112038033
0.8930825251252328,-28.791084031183004,10.700245336153692,-2.989315602755877
3.0901097453964788,-30.19838763468955,12.469386997694693,-0.935233360620727
4.468463248382162,-31.665866156533742,13.991806487027784,2.229267235317882
4.731972520639165,-24.915067113071533,11.853430614300986,4.334170617429767
3.6455177311235905,-11.448342624684127,6.375661868823597,4.2332150417118095
1.5832190164131446,-2.9265108139909155,2.106023887625154,2.6913912891606966
-0.24140181912659306,-10.914291045691296,4.046708841063473,1.3720518792514529
-0.5195586767024435,-35.558379924900684,12.975082845334143,1.2895364003037466
1.0704854130923855,-63.40964349565606,24.0831199280981,2.3409318525527927
3.5980824567467655,-75.94727790495475,30.03925308181207,3.783940691312388
5.593983692191515,-61.93162426587621,25.918301427335795,4.695327132596724
5.947312891068864,-24.952319905966608,12.441991455239153,4.355455039688038
4.437069567752255,18.705322338174867,-4.486380601391118,2.9071370525962026
1.8925766537308604,50.6592232329454,-17.57527988880625,1.6509618523552851
-0.15186948682973528,62.15142232017945,-22.718940566328733,2.109862788635144
-0.47430238257999185,57.72874988339474,-20.986420978555916,4.552486845113375
0.7958284081257531,48.222836582159,-16.564824929283358,7.6440067864389665
2.2659413822221706,40.61363742084536,-12.875426423455275,9.514483739329808
2.5765911858137254,34.83973665858651,-10.673962432183774,8.85424459832105
1.529337624012341,28.75137593472552,-9.31538439582891,5.16454179326655
-0.08640214746905994,23.214419745796146,-8.711129174747786,-1.2198421997981914
-1.473961492533395,21.12113678557719,-9.401028557396453,-8.88246461266116
-2.391089312434633,22.899575899913998,-11.194116915050728,-15.59660876842739
-2.9690445057285424,24.789776219198703,-12.577214777952696,-19.542616055618904
-3.389004650098063,21.575696955734234,-11.677771665343021,-20.35366677325917
-3.7987497431428277,10.482393123289734,-7.629034370106651,-18.834575145005637
-4.303573623140787,-6.9494714880449555,-1.1481857201549184,-15.941900576482611
-4.907698766328687,-25.653594368860556,5.825953120841405,-12.365700576242835
-5.491097499561533,-39.62072688473977,11.068914892589262,-8.76959584856961
-5.77245205383205,-44.664014582224596,13.10786455683703,-5.769068052878883
-5.216634808520841,-39.58221697434777,11.733140423094829,-3.552049483191864
-3.2285814669113195,-25.522817339162614,7.672084417668336,-1.883422028032666
0.13029515767926833,-5.378666735999602,1.9856032290777714,-0.5220216146275128
3.5801931974820977,15.731156701598016,-4.027599597434847,0.70373378364884
5.2355787441256,30.668631130168247,-8.588778959322108,2.1795938706788904
4.167648869889795,33.10177194390802,-9.763163165169118,4.308889591912766
1.3070797274811181,21.437192905196785,-6.555104308992257,6.814612580833867
-1.3713594592471703,0.25103465281806087,0.1756298700430332,8.686295165253423
-2.507719261492429,-22.05961884563864,7.901123454932692,9.174714660732034
-2.194351482823471,-37.28792614275814,13.589287659817035,8.57669606215659
-1.4876317423511736,-40.62997262109465,15.065137944016827,7.751197068487732
-1.3965360232585362,-32.342724514036796,11.99411132167442,7.137858448349188
-2.169239640077607,-17.67434202929641,6.174108141469167,6.581797942067213
-3.1259355745167996,-4.498743040142328,0.7962276178709184,5.831152897447176
-3.092017016745733,0.9427444638224812,-1.306350081303968,4.7261037604626175
-1.3004857034310582,-2.269200887020394,0.5447258543061825,3.0642489374203343
1.9112828218264821,-9.370994081243888,4.437919211191837,0.8478958476018394
5.3290255982763926,-13.292863232535792,7.265759190108769,-1.2953344974314196
7.767308967650603,-9.525562203567034,6.908041566223026,-2.438452386157027
8.668559480060656,0.6232155026397673,3.6172123629107373,-2.2586969333735913
8.030935392655392,10.61531082489395,-0.2523224760438529,-1.2361905328965657
6.251154431406176,13.28680406597301,-1.9263218256230568,0.16600372228612836
4.19668002611498,6.628167324355449,-0.2460098836902981,2.0489379998183455
2.9611782333785563,-4.142964114531764,3.3929811999719486,4.497930536077569
3.0422052791963137,-10.851992415644665,6.143522828884968,6.8135624867023195
3.8066582158399753,-9.463268606833882,6.092119472676205,7.758283495883214
4.0922456450134606,-2.8837154908999256,3.6762322181237064,6.528578277167778
3.3693866542559983,3.300774265028338,0.7298525115000242,3.3915018302055877
2.1359620314502203,6.974193191398885,-1.5938476445239662,-0.32280442924227165
1.243373585727052,10.612393835093746,-3.600424068443509,-2.672785259753592
1.078916005920654,16.90319226883537,-5.936836370194203,-2.14204604613981
1.3379219191372949,24.425862457789925,-8.255987584718424,0.9640829585094411
1.2537122040686466,27.90881304991394,-9.238772048695843,4.180506244360218
0.027113024093737954,22.54049760763914,-7.786915992226007,4.6977418868366065
-2.5307827611470266,8.653760193809644,-4.168711455212618,1.9759321242631658
-5.462565413247399,-7.003974354625624,-0.1666583047316509,-1.6168055441445794
-6.9655186024749245,-15.260523534857878,2.0243613824838396,-2.9372614864607565
-5.637247728240175,-11.592755543752347,1.527086033666099,-0.7849242854677475
-1.6874682333906097,-0.34589324120679077,-0.327713050437234,3.2314493391167223
2.9159576890979095,8.318923616848474,-1.0624232342358093,5.936723232798742
5.456938569561056,6.389522742971261,0.7174025929974088,4.726914050458761
4.083211105956335,-5.972054452179256,4.069707519815851,-0.49042809468129717
-0.6518555612915703,-20.45750887928142,6.531387607701353,-6.547988479637015
-5.34295804617951,-25.506110292017695,5.968111284690213,-8.55050735065072
-5.512194261588805,-13.179212396137206,1.8914431985477322,-3.429607450483171
0.8067536591057588,14.475023206167311,-4.201888557530305,7.072371821806262
10.537273768823667,43.47171058857725,-9.255373433717146,16.87537317253323
17.040710468498276,54.60910213945278,-10.01180845804,19.513106609139637
15.06245070480493,37.13129129185522,-5.249551117739395,12.511190866395918
4.932640629272952,-0.9916120232332737,2.5821927560789453,-1.0140909285286142
-7.696245086909678,-36.67926577530313,8.353594638143177,-14.414029156098273
-16.10075700157459,-48.200063474935845,7.863616992367427,-21.72492232126229
-16.972195316194938,-31.168482653227997,1.2241439493849509,-21.3628785123814
-11.923847197356586,-0.8421587836663018,-7.0724599061697075,-16.765578456906937
-5.623156137535896,20.39533707325191,-11.556349130702998,-13.324567167610436
-2.3655314374166174,19.413031071163687,-9.729748265539047,-13.986844877435217
-3.4978167928701858,-0.13798364259985266,-3.4221103275246816,-17.34050182792507
-7.30220971579639,-23.488864264199574,3.1309286831262977,-19.68532634948571
-11.068127897197572,-37.375041891432616,6.574910866192119,-18.652304270288294
-13.258291257996472,-38.86915089178851,6.49694149920348,-14.811851983396679
-13.821267972512583,-34.17340556406383,4.9713673531693185,-10.369181091780796
-12.945149555165068,-30.285304723255496,4.316210740807512,-6.922373339385298
-10.25540525760122,-28.05703085017304,5.029865264880222,-4.391988544207611
-5.504933209772561,-22.506818780550567,5.5208050305400675,-1.5887534084684642
0.3658605265846043,-8.777872900375222,3.647274230089816,2.3277354035776603
5.350249473304278,12.416329538500436,-1.3453158108403933,6.676699691996183
7.651630884038017,34.21079188753908,-7.980899700925149,9.524212758111602
6.859608157738133,47.52713959007206,-13.255815407910937,9.506848222649483
4.150624802200176,46.37444613813855,-14.315438076414473,7.535866982962023
1.5506088291109785,31.310382050049167,-10.120674127673887,6.364758617798582
0.7160347435546419,9.210583087641252,-2.1885962650484205,8.202347741660429
1.9150093462140718,-10.311709144625153,6.043934386970021,12.802868562672813
4.0180006631475225,-19.319653597350378,10.878044334354506,17.826607996427754
5.633484098024769,-14.26105696514286,10.08097964557963,20.70741757734115
6.306184474256326,3.3211496187247413,3.8701921142804894,20.15502739871832
6.5618948823651495,27.112128112308685,-5.141976851468538,16.558888674460082
6.997997474354882,47.727780768343685,-13.037695520463368,11.66145765109221
7.691115896096322,56.68112839766658,-16.421653678382913,7.708269035729628
8.447338030675057,50.791020343952376,-14.058007502511776,6.187962886457877
9.168276109046245,33.108575430220114,-7.129028745771284,6.9749461662862595
9.773832861951298,9.398710581487604,2.065852722844273,8.734945057329186
10.115542496815424,-15.869905976613676,11.671601356898437,10.13021667069275
10.253833368074327,-39.98474590418313,20.647525894588444,10.485599157258365
10.550469099201617,-59.707718097381914,27.946642518694368,9.554671265947551
11.08543782116228,-70.24629177661683,31.837807315841253,7.286531547976376
11.066490422485668,-67.42530941857525,30.45275470133539,4.073718109270835
9.231259714719085,-51.19180225447734,23.27218844353973,0.818613841591645
5.044840587617675,-27.30816264585122,12.255212868421081,-1.61615848673846
-0.523406613371111,-5.420058184548196,1.44472120664782,-2.8797171359020663
-5.379341847256714,6.138438956734807,-5.100032693713121,-2.9154291783012156
-7.506487200354359,5.985063381120607,-5.911715694511098,-1.641216680343932
-6.243510636635931,1.2608760269400618,-3.328045415805614,0.7370891564443061
-2.905217981735452,2.3803146085102203,-1.8987164370447913,3.287405332180604
-0.07921005557270146,13.950856780688365,-4.672506295799282,4.734177493925261
0.30687985642430476,29.63969878181417,-10.301931506370636,4.369097811610204
-1.3870070712693225,36.49862235585672,-13.83690140264649,2.344560724549122
-2.976135314288916,25.721602648942813,-10.95444106726997,-0.8326240527165518
-2.749790275404465,0.414517821233726,-1.9406827623617349,-4.680643290004947
-1.1686718002522578,-26.380322478146926,8.252220658216393,-8.591393481095896
-0.11047160839790518,-41.16609575808052,13.857854578216903,-11.760980973796347
-0.6073060369087091,-38.57171344250989,12.483113556798605,-13.528588031853678
-1.591218239251937,-22.629811515464517,6.143118212266035,-13.62732316222753
-0.8603809348177541,-1.4930980138434766,-1.1327844474454303,-12.132720191049216
2.801153606293589,18.304610949133764,-6.425078209386139,-9.591977106392182
8.259307418253869,32.859000921007706,-8.969581592884733,-7.317702672662015
12.523142113137773,38.20641346196273,-8.889030329106369,-6.94449335556708
12.831074474666561,29.99087263753556,-5.943372362141957,-9.05819642249293
8.864285256096267,8.668933375981782,-0.3094350314616672,-12.315363104487917
3.209138419708559,-15.359862072651236,5.657155747036324,-14.317196452701902
-0.6270162126550725,-25.684332807699533,7.738963453616347,-13.460023613902765
-1.0611443763403092,-12.928810508789109,3.2133891063988336,-9.920150606000952
0.4805045904345925,15.033536378486296,-5.850440693283491,-5.179216845995235
1.1461438781975641,37.25607021748399,-13.271680408374616,-0.9771847429890739
-0.8459577014370508,35.97602785239242,-13.475187615174708,1.5321164694563292
-5.1228098242773825,10.761154447106836,-6.130939741617282,2.3033860316917982
-9.97133585042129,-21.203981616680416,3.3503831318670643,2.3389384708053136
-13.805747375302792,-37.97314180949591,7.75667482471975,2.742427961653805
-16.046679859112125,-28.277503738938027,3.223493873408675,3.6003048398171456
-17.087896207398757,1.5197391166086571,-8.187652506802584,4.015652299572232
-17.65011498422697,33.04826231775571,-20.12815243664769,3.3098364176188273
-18.10185464001779,49.13238223152769,-26.419214750399306,1.7907746044357384
-18.34224704128108,44.36941013593372,-24.95565463508537,0.12050128417641255
-18.260641429479787,25.795635110486717,-18.269180579615387,-1.651078720099953
-18.054739179727203,5.167727170042115,-10.830299044222533,-4.011805807652913
-17.931190224353426,-9.252384324940293,-5.804766130998538,-7.2306696858893655
-17.74102937357356,-15.44768997202382,-3.8452109425481877,-11.123609821778654
-17.261152831903917,-15.597894732273584,-4.007168337497548,-15.336208768105763
-16.713149243249674,-13.243854928324708,-5.028231372568508,-19.26121716853839
-16.549531424501346,-11.606455878194955,-5.8131278066950145,-21.72691196253025
-16.65475665841091,-12.428729258487408,-5.534834812774823,-21.486463561343484
-16.190848978216007,-15.255939507251053,-3.9523074037231765,-18.411072152874148
-14.482212738380824,-18.36752228487893,-1.5264304604368524,-13.888940211721668
-11.76123175916281,-21.248090970044387,1.2537127401878858,-9.725046103793582
-8.764001687316316,-25.95156571288055,4.710205238248263,-6.744843620233871
-5.834172725134641,-35.04860209052937,9.675339159826544,-4.489385894760034
-2.7795209020887754,-47.522262849781946,15.981275486358806,-1.8584085897551057
0.5468096750014648,-56.8482923702916,21.4098474791263,2.2249483483922488
3.965313551110794,-54.15656051416247,22.677367698322143,8.376121568099736
