TP9,AF7,AF8,TP10
1.9145963845405818,4.039323766189694,-0.6093807179890722,-0.7060021473142518
0.8960162301164506,72.26136064377961,-8.813433988085755,-33.52800695252007
-0.6454182765442902,99.62197409106372,-12.524224690987984,-52.950537985109776
-2.7362188122499984,73.1050518570188,-10.301866559403079,-54.42156693408129
-4.83918005244788,13.866795646992035,-4.406388673596215,-43.773857512315175
-6.183740699691957,-40.10317627529048,1.1382334658480975,-31.35266150201119
-6.341250810741188,-58.93790437620423,3.2334532292591267,-24.79295779090396
-5.804572969356239,-35.76677547118363,1.2381857760346142,-25.830080241902845
-6.049653907659065,14.567258157533612,-3.234780990959878,-31.53042711494705
-8.568648374607102,67.74423965200452,-7.6710889054509925,-37.299651471823445
-13.361198499275057,103.83095723048562,-10.176271665218929,-39.6193768162733
-18.429991312406923,114.91824690831274,-10.28602634241204,-37.67564430882219
-21.184184834503245,103.58421375410047,-8.669463156561813,-33.257443262518734
-20.59378152084433,75.7604936655466,-6.14791542941783,-28.946792514182224
-17.976402951776283,35.28290008560362,-2.990405446623498,-26.098809617803585
-15.741643183699178,-15.238883596734684,0.9114776870632274,-24.362253562801932
-15.457273429463019,-69.16860557846532,5.306415602023939,-22.714782421854522
-16.891865049224435,-112.75333074561298,9.134824056954182,-20.480254937023457
-18.40722326271191,-129.55782136605978,10.918513112119214,-17.428324490996026
-18.072743091479744,-111.02411674806301,9.75836566950497,-13.46346897537165
-14.85212356820924,-64.40447730213208,6.112388609215864,-8.535202228366735
-9.363347268113715,-9.454743618457297,1.6185215643007047,-2.6872068614287534
-3.6777214353209926,34.68528188360093,-1.9749768385796609,3.897045072994799
-0.04646312593120583,60.77714551769653,-3.8732306968212145,10.700650309664141
0.6179207982493532,72.93948106276086,-4.379385496481016,16.776963952656978
-0.6779517155608757,76.42701821022266,-4.098907267744858,21.343321183647546
-1.7414991522779035,69.08434953083392,-3.092267803038503,24.707769096909313
-0.5868929986309075,43.09207765382017,-0.8629552976502338,28.113136636105036
3.4015923823009064,-4.86785808469677,2.8289004307027956,32.11371745943113
9.112310037574137,-64.75964585090438,7.194092534734884,35.314725234247796
14.423243866972234,-114.229556636319,10.497195085398156,35.335026608629605
17.70854909496138,-129.6946412415488,10.967130446039162,31.154736098568385
18.99011179143875,-99.70434293802339,7.818267165013149,24.199468783455185
19.527741748718523,-31.94910590056883,1.7437028206174776,17.0793879875221
20.120634601072492,49.339198592856945,-5.270396261821057,11.558954672410904
19.97456788285616,113.37189959302448,-10.68004874755916,7.69725389029576
17.524831807582636,135.68283338124297,-12.450176106222315,4.4489285788704365
12.387827392823903,108.93713923935161,-10.035943541492802,0.8775344211548813
6.312171964901678,46.88597991809987,-4.721044302680924,-2.8499175704566246
2.11130145945626,-21.3668085984683,0.9700794147612563,-5.390225014827814
1.5754275067540107,-65.4660555466166,4.531118988468619,-5.437745617555309
4.098546274803111,-70.0316443595654,4.781956908346172,-3.334925908678938
6.988970516247856,-43.49896175603744,2.5189642404971493,-1.2423775631181924
7.269485218010929,-12.0305119454659,-0.017180290932475483,-1.2884047062560509
3.8399296141846913,-0.41923651902074627,-0.7332055425075699,-3.534859879219911
-1.5910575624480203,-13.479931962694764,0.7298879016902979,-5.967089373815153
-5.756237073062104,-33.22575833026878,2.749752428273194,-6.4190628278262
-6.398868171153903,-34.51983747121761,3.1093917645875737,-4.375403015777118
-3.9470423983778726,-6.102503907986003,0.8495100176629512,-1.1426219384134488
-0.8887059068885643,39.888654464220075,-2.941297463642889,1.3703344788054215
0.36118989988556116,76.43583795836702,-5.918806519627412,2.187155277280597
-0.8246340924206037,80.77824015450838,-6.127940166072615,2.138267215572823
-3.1077113402727123,49.807574656114014,-3.29142354864831,3.352128031980716
-4.342317948025366,1.1558618063899917,1.0747701593743573,7.382322052449723
-3.263533899869677,-39.25056539228576,4.685550211149005,13.360723582927497
-0.6837959932029988,-52.64026592783014,5.86000040068688,18.05572410591528
0.8829586315245793,-35.73632899976955,4.339981639858313,18.13877011225822
-0.6126252076762659,-0.2267584043601345,1.2270922526115617,12.835691926432725
-4.359550274886731,33.024645907930626,-1.6757596645560113,4.877487778633821
-6.459813629873016,42.978694461943796,-2.7218014147687675,-0.8089253365716751
-2.6905356063158066,19.407875230187468,-1.2156114969287721,0.08887149153348722
7.6760299440135595,-29.62659360597487,2.173572614372274,8.212808549708676
20.14358311986566,-81.13883437657304,5.750334979834665,19.03449734492018
27.08770826867588,-111.5549712719324,7.853386784615665,24.767118408338607
22.61634066092362,-112.09110374305946,7.94922114378458,19.40638412945912
6.944767937831872,-93.15649198992968,6.870939804675283,3.312656686000084
-13.075872774131883,-73.92467403441721,5.934560364490857,-16.711312395198707
-28.14807621381025,-64.91067498596132,5.642911662424564,-32.019094702508205
-32.552893587947125,-57.89355600409685,5.127812006466366,-37.41667972791195
-27.331502817150913,-32.8466304437166,2.8888380140197896,-33.27706144813863
-18.308051509974323,22.718051167134618,-1.7714479499457614,-24.043661581027624
-11.174762459943757,98.57971634280018,-7.85110232474351,-15.157676719465275
-7.978270275673855,164.60363379769376,-13.04053809606803,-10.290311083706786
-7.189825022733834,189.61394626725922,-15.082138522373903,-9.865739822049807
-6.0583591797147385,161.36690955647134,-13.110473827568887,-11.422303538906878
-2.8083844781836396,93.47440514006972,-8.116520802321642,-11.576800623426054
2.4778616403657074,16.455030477225517,-2.3270333549369435,-8.217136720124657
8.152656271826105,-39.143466289687886,2.0116993135527106,-1.5130827522172103
12.037985166940071,-56.72994962250089,3.652071343219676,6.420639934448354
12.675955443609242,-38.49593524066563,2.6731269989625632,12.567524376947656
10.059249375767997,-1.168167512661591,0.18099089857772585,14.40921533538461
5.45429634075034,33.80246714737344,-2.3207475596013314,11.377752383650234
0.6976215847975094,51.124786098506235,-3.6660380234539596,5.3772634514801165
-2.5033509904257687,48.25384681250399,-3.5748474810100803,-0.4355414998820857
-3.2181881141647537,33.311689006558986,-2.599680047643033,-3.775819306992732
-1.836936320650614,15.736023607488228,-1.4177690822966384,-4.348115057887152
0.10697252739129798,-2.3236939678535253,-0.11158644860708894,-3.2009724732276097
1.1830677501274909,-26.166234961464124,1.810859283684213,-1.437698777910346
1.3792956255226618,-60.42297319889794,4.671068965623605,0.40303935188337014
1.9760648710664543,-100.31071011321103,7.928516661971997,2.2141171225600482
3.9780794045765204,-130.40221805786032,10.240405012045871,4.006125553784996
6.82663927931841,-132.97566165200047,10.252798053074546,5.636772985765421
8.73758576054333,-100.0653739561858,7.504439555637015,6.661387891554446
8.150606268038615,-39.60506827258638,2.769021695958615,6.621693109404171
4.871552609586201,29.357581237715493,-2.402116938686617,5.696278184211917
0.17404278457469038,87.7087569192362,-6.5570243290870165,4.83930420028595
-4.018592921244331,123.91545973819034,-8.93185855098524,4.89894351398819
-6.427010915433432,133.68696438894287,-9.353623154872958,5.687072376655812
-7.3727336908307315,115.88955853426097,-7.7719739553848655,6.326862182563684
-8.380907430341885,71.50108831516398,-4.109863255731123,6.531495512583323
-10.437620719367949,7.097401986209884,1.2952319268196915,7.0718938756716
-12.605012164655882,-61.906635191253024,7.176499321171601,8.716432394830353
-12.73270714412704,-113.95717533907596,11.523067061888291,10.953305761750661
-9.752524869548571,-130.73039729638512,12.597069092766567,12.014090694965628
-5.120198780735836,-107.37759543186313,10.026242744305716,10.101999127859257
-1.8004932864050058,-55.69928878981617,5.050889655954664,4.687553568686755
-1.7029002698416493,2.70051431284302,-0.26453484427409085,-2.8361798450331523
-3.841817770513565,48.06347265729249,-4.190041176564703,-9.337510398681696
-4.797177582011655,70.20608577028042,-6.003052414836316,-11.228394134368978
-1.388518283815909,68.16181628627382,-5.836214869434679,-6.632475851957162
6.190944805806307,45.26525412533313,-4.062855038849361,2.967205524411283
13.497719780686333,6.325195035288012,-0.9302662056499733,13.16530862574057
14.841657244795607,-40.459452145329884,3.1460381046598815,19.034567999548127
8.368049187119745,-80.87488352675432,7.001732714640918,17.700024779042987
-1.3173940054178805,-97.7652743105198,8.760539666619042,9.499977938437626
-5.885175409187113,-80.80625904706794,6.888765737128346,-2.519275634702787
0.7073929366877836,-35.36432227902032,1.4644832117656206,-14.23088020039472
17.970887753754127,19.036668860646376,-5.619454466003889,-22.42069336643211
39.30652696266306,61.09692302977317,-11.804158042791759,-26.09258815995776
55.80589591918557,80.48827649878764,-15.302093020317596,-26.201909356339673
60.40304364613263,80.1931720604633,-15.644223143019044,-24.199900641567897
50.46949848105469,68.39922274294827,-13.241170969405633,-20.88628772421549
28.359601786896274,49.63523745724862,-8.747646713374705,-16.453649062621942
0.06786752647200732,23.824341388685223,-2.883137759142258,-11.102031328828357
-27.225038565898597,-7.4633798355827805,3.3386685872312416,-5.2950691988085845
-47.46345081539934,-35.975201417228654,8.491748944975262,0.33977477735176775
-57.116147121991744,-49.777082904800075,11.145901342236794,5.06273092686932
-55.79606232275495,-42.07844448894277,10.653700348034572,8.168400920427798
-46.207473946388625,-17.136420990186444,7.6575030214849855,9.486876052847228
-32.959081787102036,12.219407768094005,3.786434157534622,9.76437007368738
-20.309657538331162,32.34647706484829,0.7364565693064791,10.23941352343924
-10.306885977940784,35.306660204220066,-0.5518600419131309,11.684232349017728
-2.8008186839298945,21.39197603608072,-0.13593764071820885,13.91222708628424
3.0831588988641183,-1.4089727213214158,1.177435004065385,16.14286827981866
7.79366686639899,-20.580815919137674,2.2774026766269464,17.65326418577503
11.381795594443208,-25.093670962069947,2.25648904157821,18.15493017621805
13.939432593376473,-11.975993724834591,0.8863831123927182,17.856911298588706
15.610631563423857,11.111371870515296,-1.2029992266963454,17.194738007015
16.37086721940799,30.09589795647571,-2.892561337905564,16.153574106832977
16.03280320228612,33.70788896344475,-3.349874453171423,13.777786959702903
14.362274994754639,21.91202531266544,-2.6483259912277806,8.894806075055282
11.106382524601548,6.900226978654397,-1.690908394747808,1.9034144505793946
6.19129071456738,4.112591554333399,-1.4358944010937376,-4.270463069701151
0.19043695189147788,19.001143067457082,-2.033699228128306,-5.671909386042998
-5.5130112553008805,40.73659473424007,-2.6193961290497274,-0.40058468760800925
-9.316573939462279,49.50105711868173,-1.9991591214317905,9.390179274326965
-10.23502146885781,32.0670622823903,0.28561518553636656,18.331644843673
-8.230979795392825,-7.395854964387533,3.4165281852226705,20.971322405764138
-4.111059156801773,-50.235072170092955,5.823785909486232,15.23358356838071
0.5694453229803322,-76.9547686011271,6.406913335830212,4.099969553788808
3.8401401560549537,-79.70132410583933,5.35297248206509,-5.902404001293996
4.352602083713752,-63.72628832134132,3.7513023271504853,-8.980059886417967
2.4795670958100993,-38.95024002119762,2.425588835488293,-4.2308221815633695
0.13062578545674294,-11.852279276460994,1.2592689821485417,3.765676245077843
-0.813289988504611,14.443956450048631,-0.2992486848356943,8.488182929788977
0.13942755263283335,34.774875931627555,-2.2444540776431676,6.024326543462472
2.210106049156967,40.3618115543409,-3.725457173048461,-2.9278951329193594
4.39614286467895,24.862028048406376,-3.7598020414964064,-14.29922014119163
6.122610101116771,-8.021304873951813,-2.1534938203716463,-23.34516971965076
7.159376017514719,-44.315299883036815,0.28033346689448335,-27.024990403313826
7.388920488528268,-68.8198801268842,2.356114353094304,-25.25273929118207
6.769590336774935,-75.67399836433965,3.387242537427613,-20.5813795710293
5.377942776922173,-70.33071592215114,3.4990803113141316,-16.38294448559518
3.5119122618962866,-60.904207844759455,3.116148514161835,-14.742461836855801
1.8475946716065323,-48.048781901606496,2.2119850478399354,-15.64393205027819
1.2538535800840818,-24.73836349938568,0.2499876803849545,-17.687782666867914
2.0349322710972166,13.32907617295737,-2.998569785046861,-19.193480203780325
3.3238907854956468,58.46877353907379,-6.704897806092509,-18.84938977546088
3.5735926134255247,94.14407880252682,-9.327156954547585,-16.13666749593031
1.8011518294881756,107.9180198244321,-9.819416242740337,-11.70761533165055
-1.8199364505420998,100.43470622351587,-8.392367709914964,-7.132394223041277
-6.5454405616334395,81.17248842445197,-6.0035498086189785,-3.731768982716684
-11.780683677386444,56.594871868802095,-3.2336993610335893,-1.4745657662435203
-16.99212685073328,24.714384106866184,0.11942901104829645,0.8521896803785948
-21.31997549180011,-17.27112734064356,4.2741123482398224,4.34701594706317
-23.831306219335545,-60.98792527194582,8.44070889416126,8.84609379063309
-24.222069007970866,-85.95968326882907,10.821804008501012,12.819818767927547
-23.037936806726254,-74.59112312497719,9.905227932815679,14.243067194085093
-21.204201702358322,-29.966860416949526,5.939511101467311,11.922454076145506
-19.49678709704854,22.25976310557625,1.1142743446876344,6.544906664925139
-18.342722985435614,52.12643290077763,-1.928545141928322,0.5061867127703926
-17.768417724814256,47.78262276872486,-2.026457914315026,-3.728647626424139
-17.40452037805803,21.549593432370568,-0.13324139268117133,-5.388572484852768
-16.700266585939488,-4.864263640538397,1.8739829645898889,-5.469474383268867
-15.209718211446436,-20.373252420579366,2.9590087551577264,-5.136875904340259
-12.611329661838235,-30.13638036862191,3.487339463531935,-4.460879583771612
-8.630086820814954,-42.97236638122607,4.177092093798748,-2.873641751172352
-3.354853135762467,-56.03830266632507,4.8095390312931805,-0.41426450216100125
2.2813893408492887,-54.73342677763907,4.2498799477473925,1.9516858190954551
6.764886391176129,-28.486638490804555,1.741173212938751,3.137564010850943
9.12141681482143,15.08181291422603,-2.029673132722649,2.767728641675568
9.718482488710878,53.66517199124978,-5.285170247309353,1.4009236677570418
9.858583706120397,68.1902404021956,-6.546693196943859,0.36742566194460397
10.807941302307274,56.79771190773016,-5.665520008737692,1.3677237375180702
13.365700320923288,31.808299232600852,-3.59473338955135,5.753282348159325
17.952215537503942,5.126297800407074,-1.3029206590498,13.822020411340699
24.511678654896286,-21.151434175541752,0.9675992680949103,24.64355765276947
32.287005479122854,-49.40305811923777,3.325346847474289,36.30131848516764
40.1148978461263,-74.37365155563798,5.256500262392863,46.15425900180348
47.138842213066134,-80.79426962972556,5.406518397056789,51.456686967022385
53.13930359638811,-56.56306293660894,2.7270886215920744,50.930204998035805
58.331169915443745,-8.320899274675078,-2.109596199674279,46.49676498392631
63.21952334426313,39.07858814468718,-6.7508209461068995,43.110075068412485
68.5088581396025,61.556309878404804,-8.920404477982077,45.82006397299108
74.37538491486306,55.26856451602339,-8.214988705045483,55.96969168262046
79.33111189727839,37.11317306570566,-6.158518594301155,69.51898766109059
80.13831171753877,26.25467002695442,-4.573617433015347,78.75483372932639
73.42453614731566,25.89376393915008,-3.9796260898122156,76.18620924567419
57.656220828202656,23.49254105643642,-3.5027043620109235,58.392836079327
33.884116856987916,8.085823770261891,-2.1696024270416863,27.933105403144456
5.310397476895545,-14.34886869268085,-0.16950737212036845,-7.6995053407487735
-23.507106863531924,-24.130533901744265,1.1775495024583384,-39.685316286311114
-47.879022738680774,-6.536369815162501,0.6806986018820669,-62.01672825116192
-64.90094082373203,33.58966007500785,-1.5253965287508051,-73.64392263079648
-74.95090402975673,75.92525106214767,-4.053827217150229,-77.63313845220071
-81.14274231735192,101.9375368479522,-5.463026448977247,-78.47677342510777
-86.94168849371896,107.03555822843559,-5.266592523095161,-79.41972177484931
-94.00200195715036,97.06187310181372,-3.781053171713078,-81.00297726647399
-101.68807114533878,76.36264281832793,-1.2602305219501562,-81.3479615369962
-107.90538076583088,42.48850429065964,2.4479044378515447,-78.14148897297991
-110.3246662960852,-6.630382220070573,7.261304308863039,-71.06015654115306
-107.63622712146375,-62.053945811399714,12.110281472651899,-62.41974740720413
-100.3805557882739,-103.17824593605806,15.163285752554424,-55.146996416557926
-90.44318080582634,-110.23849513870006,15.001801467269562,-50.050721869500435
-79.10924415080063,-79.48106019445297,11.644791100472538,-45.26459922351356
-65.28496783305398,-27.64401779413014,6.517667261264873,-38.243655720433175
-45.85794658138223,17.772903045815088,1.5240413217702173,-28.001407223337328
-18.400328777375055,34.48880558353767,-1.9484239201826254,-15.610431556826436
15.686814730579771,16.788201593281222,-3.4695927520107164,-3.2069499490145925
50.04139195752705,-23.58607050564846,-3.395147947192596,7.2391695341086155
75.57084989251712,-66.10097867456591,-2.3726009996090207,14.704042123417153
85.37722663761049,-93.9679964268402,-0.9123801524584725,19.280316563553818
79.4640690541113,-102.87047559356199,0.7117322617734599,21.75192848342153
65.42416682849483,-100.53586518451124,2.306229281332116,23.129027250421505
53.73617810598345,-98.2074385724195,3.6579265586960465,24.895013040507294
50.985726423201484,-100.95966104656904,4.606996167884986,29.476254348927416
56.47612464831629,-104.16893208040126,5.078338406442304,39.241688153357664
64.36300229747665,-98.21509503421915,4.955788809560231,53.71296278566237
68.28931282608934,-77.02494138895172,4.043319642089598,67.64585170010638
64.44748707464534,-43.2913083764795,2.298410420630112,73.06859675260132
52.25626197582556,-6.459277899535134,0.07644424087602253,64.74976866254094
34.22538605268129,23.749964425069184,-1.9653301729383708,44.74047721615593
15.502303460170667,42.02896170419661,-3.2247028250926135,21.945168737124835
2.097187019969701,47.401758177433194,-3.413648660643715,6.754964546095713
-2.1957651436539014,40.928378065934325,-2.5812203548353043,4.625667767747743
1.8005114742036816,25.078012073327635,-1.0439254333011492,13.10016262383382
8.907803580519532,5.441455767717444,0.6574618918891051,24.18075128686444
12.575775415932348,-7.996554517648375,1.8154900670217182,30.098052916327745
8.771465516555669,-3.576754627953181,1.7330756404518994,28.057945712236513
-1.6930110342503983,24.528351154714475,0.07584553837251595,20.593090554187715
-14.04699039848202,68.73899428543619,-2.728913242322275,12.09282461997364
-23.108076608857658,108.53890229040069,-5.428937324724644,5.210903662383836
-26.684054130001865,122.32920175159911,-6.557567209229356,0.06411383228512099
-26.09233487631314,103.18487558960246,-5.486239660209331,-4.21620378580423
-23.872287222066163,65.28571849971188,-3.0673103159359694,-7.925778745260709
-21.38286833390049,34.45883942945225,-1.1450384723140197,-10.542672676355233
-18.44518594737075,29.663944366680067,-1.185466816761433,-11.381565380822304
-14.509771524150226,49.92278486635077,-3.1663316196053786,-10.335578950378194
-9.55748758269632,76.49789426699515,-5.676952534010012,-8.251834891866626
-4.172990531493086,87.63745968117497,-7.048543223327263,-6.571020892839105
0.53096545276803,73.89691424819223,-6.48262613743232,-6.229527070944081
2.9748206847939582,43.269466211988735,-4.39212270276778,-6.82873707521717
1.7421396139514858,14.413934896837544,-1.9903099437151475,-7.22619915003747
-3.322972615384612,4.236540427424086,-0.5692581572244768,-7.059886638981282
-10.61129988187596,17.56593707983035,-0.788645974767409,-7.303163773943383
-17.42189244559829,43.798804156552265,-2.224492560275618,-9.074947094195204
-21.21432393743512,62.24373344887926,-3.5212529426814476,-12.2351047923827
-20.600700611880665,54.52201245356983,-3.26739051686751,-15.474301676318907
-15.778990920897563,17.587066046370214,-1.0852175205476398,-17.52359975978635
-8.32090186998076,-31.99557274412636,1.9378032954406972,-17.90394756889101
-0.25656086757006685,-67.58057562871042,3.9175015735497243,-16.705324419996213
7.050239470726776,-70.44641956499238,3.509567410573294,-14.138436615588805
13.26970546992184,-43.09542978253328,0.936079585764208,-10.379185086752567
18.419905431715218,-7.124641129362084,-2.1078090660474835,-5.628076375195451
22.026741969534044,13.291982371693662,-3.6933024335018114,-0.4143385665562284
23.098958368421904,9.266113592337993,-3.116172155697981,3.9221842042613786
20.771918478738648,-8.452505812676492,-1.304744924284114,5.385345202831231
14.843376769845362,-22.235067109270794,0.25678129350598383,2.7538608039760346
5.976187540337914,-25.902156034395684,1.1048267662025713,-2.7820298386299447
-4.161431791272615,-31.88356641428923,2.334510070217239,-7.777801505105142
-12.979427737558206,-59.96950087084405,5.515905082071876,-8.796669396582436
-17.806199045941298,-116.26964623073746,10.912760395320978,-4.776609287379074
-17.31119231139811,-180.45620233314108,16.588813049208188,2.4205065928564924
-12.391089063221472,-214.51893057481965,19.316396092333992,9.236452268759871
-5.656817339124173,-188.9096957587326,16.75957695818256,12.308562547789863
0.09988127333001767,-105.44432349642135,9.270043784276673,10.257250282813347
3.325154087002039,2.623658577196481,-0.18999456010157728,4.640996021052395
4.183946659016153,92.79234089908013,-7.947279137868739,-0.9538025841287943
3.965732392693997,137.77722402030298,-11.726732697373741,-3.5839036482885684
3.845943751545731,133.52773110352877,-11.335417571194146,-3.135479967903847
3.954332942820559,90.42212512713797,-7.801747191001373,-1.7420034422229556
3.69413743040024,21.729441286396646,-2.2576647967807983,-1.082599856892288
3.0439409246410807,-58.94531561219281,4.267325079959825,-0.6112682846573135
3.15688920974183,-132.78951315869915,10.300445187424096,1.4484586438724232
5.1040155056742655,-174.6824852018815,13.768856912334838,5.6441764881922785
8.021719828555558,-163.55041990023105,12.922286857471677,9.957393004118822
9.115330412707323,-98.1170435579832,7.6750355435773905,10.838415638139963
5.975280343058552,-2.499781621740078,0.020132399887471692,5.953258322368828
-1.1359843794723188,86.64622357889012,-7.0299849079797,-3.200746115856437
-9.347265107938425,141.68079203112495,-11.125740473640159,-11.049002782196625
-15.277041429972305,155.81372187967082,-11.561128966963485,-11.199278313084466
-17.05886885691376,137.47832298455762,-9.025376496918286,-1.3833587060959518
-14.94783936466125,96.831049795409,-4.677787937555217,14.075260760687144
-10.734350469685502,39.26647589311601,0.5258147555710206,26.833673463804267
-6.681501081811347,-29.33188947472565,5.786781078316966,30.13181756045828
-4.444654925320718,-94.36382768124143,10.038767697085664,22.813407723138805
-4.366730282486781,-133.47762815059824,11.927862823235984,9.175674182894
-5.4820849462044094,-129.14259176897548,10.52940047628039,-4.215338652175333
-6.145649989410734,-81.93938404263766,6.156897332012231,-12.14664732886876
-4.903499072328246,-11.165137693171719,0.3067591899254927,-13.086086376784566
-1.3207380374139426,58.5730111192441,-5.332314009555661,-9.450334113728246
3.5566172999461863,112.12429199098459,-9.827253985786431,-5.6836901151680035
7.6579591582915185,146.44073718114697,-12.99628278247723,-5.227587625151564
9.316706120356946,160.40753975569604,-14.591200178690817,-8.501283657678144
8.517949162424962,144.71243304256225,-13.668006922954278,-13.215490132079937
6.616641844935004,86.09793110952913,-9.059782959562817,-16.274807284920396
4.817312172816465,-13.434905187771012,-0.8819979075094251,-15.582644710726328
3.2165165304014587,-120.58460848505626,8.231464122313312,-10.890326945446219
1.425362614656786,-179.92739173247838,13.788499768468272,-3.742152535903352
-0.2812426990200338,-149.61022044041354,12.21183899023816,3.364018612668108
-0.8702376011452099,-36.439703140487744,3.733051227422329,8.317109182255159
0.4362873010716092,102.20222190546119,-7.250401476050495,10.355637589804083
3.282784756114371,195.7906609865716,-15.054490405491212,9.94918075088
6.262437645143939,209.7741040333953,-16.682974190657045,8.072682102374088
7.750471702333452,167.89483152320057,-13.7319406194383,5.826477242970551
6.925814061108174,129.0660624100778,-10.67962920658962,4.375454416444065
4.412769901645188,134.7508642138749,-10.823261993456647,4.500169179625299
1.9067757360067037,167.94332529001173,-13.03478488001741,5.95001474910085
0.7508674746271939,160.83671665729963,-12.184438889738725,7.638168258992261
0.7204229794129856,52.13448644278931,-3.4518921223691184,8.731107562199643
0.4474126742754499,-149.57836882548776,12.645072609756165,9.25609106552744
-0.9163379990875691,-353.31666674210004,29.00110238904875,9.43577525694078
-2.8051084074912995,-442.7564075359492,36.27324519750838,8.8327788279406
-4.096262901886529,-359.6839127361709,29.63357291680452,6.627904385890789
-4.347122861624872,-143.94158872417472,12.176967685376358,2.631778885731531
-3.6831648389590983,100.93277279084641,-7.785487923723012,-2.3175415084494606
-1.6797058346589107,279.8520257673804,-22.633056336852366,-6.866010513986547
2.8868849523718803,352.85180270896507,-29.23182449421297,-9.830316276472855
10.569356131575526,329.4670145970318,-28.36231829358721,-10.737066433855626
19.39132966541968,237.27897589439686,-22.04483546256708,-10.302391615774926
24.724201403743766,103.9642966168859,-12.088375235656931,-10.307542523239258
21.737049167206123,-39.88153859240654,-0.48644376325927535,-12.269626048260887
9.073496366207172,-160.70722679120712,10.288818973413509,-15.826926492021743
-9.060316342709136,-239.04443683736616,18.400295778134264,-18.658158821435265
-24.64601730236713,-283.8497219760579,23.841306480791452,-18.178235438448652
-30.8347438340572,-316.5564347365985,27.604814683677485,-13.261585241495276
-26.419579121274175,-334.2332903080616,29.25009190134975,-4.647026910846967
-15.975653744989438,-296.7758256283775,25.94825353038304,5.583133380756276
-5.656457080297491,-164.11441083304274,15.010903100010433,14.797114248701604
1.2999352329471363,47.61528066294943,-2.071362158259285,21.040000496522488
5.39632466406112,249.21149535947987,-18.273801085800798,24.317543882975574
8.138807658896587,325.44541886598404,-24.471717454007965,26.34725175998798
9.296389657487817,214.1814147442704,-15.599031755532158,28.309609031707666
7.167673442993765,-41.08256002556625,4.990316853031374,29.0682983069167
1.482346249886856,-306.14467870870186,26.48954999908453,26.572881127524333
-4.201234019945935,-433.9690021064998,36.84047109391065,21.255609313101367
-3.6925483217931383,-355.81455973854406,30.20419258461991,17.07903428353926
6.883076670382604,-122.20190956942483,10.499319512091583,18.156290008048963
24.172763472105814,135.44127746105576,-11.47303996514218,24.130162114537463
37.89240781162866,292.5063343887267,-25.103847533210374,29.347030148508612
37.72074143281882,304.5172967558007,-26.229443433964565,27.178308330058726
21.698281970339497,220.04325522673366,-18.63765292061612,15.791452591909753
-1.459617767990082,134.23375514805116,-10.468075000714965,0.21689179630205166
-18.71208576205027,119.67001654333887,-8.29902197213255,-11.354404383974313
-22.415428455985214,177.48253761482695,-12.709619058363138,-14.25591632575435
-15.33679296392132,236.4589549196973,-17.97942215215397,-11.438946455936248
-7.382358750194284,202.5827762229669,-16.204386759954094,-11.165582922744768
-7.291377964594361,31.75685693513701,-3.4246429304576007,-19.916393355570857
-15.932988895423659,-223.54458009533224,16.39089770702599,-36.61315931485005
-26.150635349038144,-434.9395452799212,32.912636934476566,-53.233723048521036
-29.078013902423216,-480.9122264786813,36.2181976752077,-61.0347284980597
-21.743555490706417,-332.48841555466134,23.944016099816153,-56.76177125352029
-9.495229568687899,-73.44726001605704,3.055836525569567,-44.01433676176562
-1.1770355171938278,160.49217793032005,-15.236780763292067,-29.70741651818156
-1.58208763979638,271.4450413063202,-23.070625429058452,-19.215115004751954
-7.97481137226926,248.47675354869614,-20.006312280121875,-13.73327058421419
-13.187762266213289,150.20809307812615,-11.348210694696082,-11.035700888362124
-11.790818142219456,50.60549707639097,-3.365140979785467,-8.342836272659348
-4.019592697576456,-5.090370927616887,0.46041048233580717,-4.725375004375487
4.969657529723976,-10.891407630415816,0.17871073181581126,-1.1216479479112689
9.184755469739077,15.072246211834939,-2.145492926734181,1.5358095080645922
6.0554183265733235,51.243987822059964,-4.460355512594927,3.6590808914466493
-2.0104748619895223,85.30944035832495,-5.980741856539042,6.282224394680197
-9.720061022091313,115.72037518834689,-7.202804938669444,9.472089525487732
-12.79124100939748,144.86676803589592,-8.923109954504739,12.086940236605232
-10.295503367067873,169.7103871917548,-11.092114700661403,13.19993942821847
-3.825469302834445,177.55870181858984,-12.460389725141317,13.4144426653077
4.701976455160757,152.3728304165928,-11.363621620295504,14.585544728664434
13.759055960602215,88.84371721924654,-7.064690893537857,18.23886728757349
21.198923213478015,2.7888491121031462,-0.5984144850525758,24.010270013207528
23.910601031255293,-73.55673053205167,5.61228960942488,29.29741521139445
19.637675222764425,-110.80003075750193,9.19765436316052,30.689184551130076
9.463595302179696,-101.24172159629676,9.273659310921861,26.55205016319396
-1.7083051131443445,-61.20885749153462,6.71824135539458,18.697298680818243
-7.586231427044572,-16.426150128137888,3.193759729138585,11.218303542458834
-4.293340351064605,14.099544880579748,0.02910844910945634,7.246749706106509
7.018862875587667,22.21743278905458,-1.9933124655466161,6.773136660440823
20.623842794586913,5.169679048459989,-2.1792813856992668,7.527708782504174
29.697402985152465,-37.96277712813016,0.16956178773222041,7.472614652186832
30.530491167961657,-102.89773042830218,5.108629476477566,6.127677582905505
24.405513015017107,-175.53041634287706,11.414307278086225,4.033719572009864
15.939904699314631,-233.82923374242486,16.84965248762176,1.8441953003051976
9.667588900676648,-257.79599246972157,19.34649871679214,0.18364273094040445
7.605731778380071,-241.34169093243779,18.25684325082648,-0.115370656973827
8.877988889711418,-196.38994551520543,14.710489216347751,1.8442873092138434
10.683487370632914,-144.02276491161132,10.7436825047538,6.416651834932187
9.882075768134612,-98.69568387289358,7.796632460745229,12.714967501223072
4.9185201313640246,-59.28120472002577,5.753147767188297,18.36450032112839
-2.8335287487202154,-15.25299573625666,3.3514288375832813,20.387848615789924
-9.710072513896062,38.139282271556404,-0.35311640117964055,17.264128324167842
-12.328265930928897,90.65821272106756,-4.8038056624493155,10.61018042793507
-9.989730495080808,123.15963530823164,-8.211154046887039,4.397237154755338
-4.906587080243931,123.7858950074385,-9.091487637367177,1.7962378297704895
-0.3608896125570148,99.23179449456629,-7.609141680836099,2.5783841507028833
1.516532871971234,70.23455740485146,-5.426330216261564,3.7279834276317483
0.8025549696789824,55.19599863552674,-4.25733418249503,2.4910550761577688
-0.9016697099804489,56.87226472726775,-4.530647332295044,-1.3644372106396647
-2.2874240396053467,63.36566061233147,-5.292564696695463,-5.992995576988452
-3.5426232900676538,60.710638514206344,-5.2482258191783835,-9.54672974367872
-5.440009553853092,44.718266950623224,-3.940851603289615,-11.654363622481362
-7.227614991455261,22.542144221401387,-2.1096425994064822,-13.245514694872494
-6.347427383874548,4.611857812576067,-0.9656368917591605,-15.231924664849267
-1.3247155363028476,-4.721636265938024,-1.0011174610460722,-17.30445025166734
5.146948473043178,-9.519296131394588,-1.4427987346653133,-17.96441840815778
7.214642194518098,-16.010889297538906,-0.9880306050677419,-15.8931672735856
0.9591797494948283,-24.263588672313375,0.8023844928908553,-11.41750711410073
-11.537449497696223,-26.365930254375744,2.869146117784932,-6.628496093804758
-23.738841399407818,-13.134349635047617,3.478133291260161,-4.156843267360304
-30.565176790463596,17.348916225552546,1.7107173747008633,-5.882327041185139
-32.82974586265128,57.20232946055857,-1.7541086393593088,-12.289670142131866
-35.844363411150944,93.21073683700023,-5.122042763792273,-22.050806068033765
-43.51127023670341,113.42947986336672,-6.689319283618226,-31.841216399884566
-53.44948287935008,111.7982674667361,-5.883163853455195,-37.45268369799633
-57.876358028209374,90.060202697694,-3.5361883141840798,-36.34638323846053
-50.02409930340579,57.15588270724482,-1.248036384303407,-29.543879817074505
-30.89123972264981,25.512215931266823,-0.21507592214758664,-20.742600168065618
-10.241980815940176,4.813990458922213,-0.36502362507329167,-13.461758931654876
-0.1477767618981429,-3.214538428441654,-0.5315339211143706,-9.081359379887608
-5.775650254751363,-4.428252447680447,0.3991448298466521,-7.164982949529085
-20.95911580460342,-5.300565890640582,2.2948875216610967,-6.786741659572027
-32.455597666131865,-5.1045007322781055,3.600324627408884,-7.199804361210711
-29.745616237349115,3.8408554542792905,2.5201962679566194,-7.76160692306238
-12.874379732805789,25.37103824732487,-1.1912878914737202,-7.868552877478904
7.552834070616283,48.008762933020485,-5.3318064532022085,-7.085351926989515
18.33624094246664,47.46689835661722,-6.395001598688607,-5.197864089021992
14.032088572853812,6.428637636877226,-2.359347877770331,-2.166099362170376
2.076364178832806,-63.642811560642734,4.981293257071658,1.9482838295556826
-1.7691426710481468,-121.14607968526312,10.4682670230778,7.2155296273535745
14.833746842723036,-122.15583103918554,9.198184230962163,14.107067619142413
50.38798991269577,-60.11921209281359,0.8763346919801739,23.17480201890094
88.97952172304913,16.61940993688853,-8.816084236691621,33.99948841630956
110.85889286410516,32.60664534186771,-11.736938027485952,44.52765033970821
106.45804098761162,-54.77874140333594,-3.617630961970904,51.98302901381724
82.87773007352361,-210.07928496550684,11.747502351863561,54.783554330324954
57.82073826910249,-333.1654964659067,24.371178480871905,53.54550820396543
46.28134840785508,-329.53535122592916,25.153993761109508,50.253246780995745
50.91545170807887,-183.42589399459447,12.684824414120902,46.64857727196885
63.03889211281015,28.293528197602793,-5.85625971089773,43.29952516672328
71.73020257135437,193.69405325947923,-20.336058991321092,39.699358779753595
72.3303619009147,244.96247268853756,-24.891120672272386,35.03691521043467
67.69390363420808,194.81147218627382,-20.870500587154726,29.284599160442728
62.889507139077935,108.99383219373766,-13.96939385699836,23.852169457449268
59.389747538077174,48.21178267289574,-9.008057763887107,20.70509370387454
53.788248316511805,29.37311015049661,-6.901239895187625,20.13320663327384
41.05457309162438,29.56129413198167,-5.474864078211595,19.429000900761938
18.772474336920222,17.996691627463235,-2.3593093322014282,14.52803223895068
-10.8240287996919,-15.72216572144341,2.8474401664160114,3.6217549230433588
-41.859987541753824,-57.28519066083136,8.55032096036427,-10.635475233378742
-67.93207616740881,-83.9536874078337,12.69206651368691,-22.546018742369714
-85.51231912240931,-83.70101996898269,14.320454069018716,-27.373771322145856
-95.53454971974737,-62.06403935051159,14.008044625421643,-24.86354231813151
-101.94242191589765,-34.51518793862607,13.03978174885106,-19.63852709469986
-108.19489005008069,-13.454303986233002,12.258533742793889,-17.912233030377113
-114.48888809801707,-0.8242181573602432,11.579183370400418,-22.650467218423
-117.87916807575128,9.461807411659086,10.412097242929748,-31.126101605660242
-115.07237772511724,23.461485192611494,8.407965430758471,-37.46022394788882
-105.63577180905128,40.709794097127556,5.858259665739949,-38.2015908578047
-93.03750815072974,53.64980741719055,3.5783692058040577,-35.54371392734796
-82.33192301869045,53.187610519648,2.4141062087126075,-34.829779871599214
-75.90852717211418,37.82993733425664,2.5148463379059645,-38.89824959418463
-70.97998927934529,21.21071868856428,2.710105283036391,-45.02389472288426
-61.727608212460304,30.19721806506685,0.7039136456909076,-47.281951277603504
-44.702849568616436,88.12938260482683,-5.4189039401775085,-41.771123760890184
-22.313203405943163,189.11879121394813,-15.032455908731773,-29.91425202302646
-0.8008711120825319,283.551875482749,-23.953705142894005,-17.288888157153973
15.133447609919994,296.406536337805,-26.145093480874483,-9.259914066064997
25.568346487872788,178.33074790780913,-17.80680449264327,-7.069406496720606
33.73714325186538,-43.95812775224008,-1.1655812941769659,-7.592686891732355
41.9877163348328,-264.77189719411325,15.459875318943306,-6.862256346647742
49.525065143458676,-360.55775554136153,22.43556610662865,-3.934346213763413
53.61757989519528,-275.3354263434388,15.424088626104062,-1.2312120769412138
52.732943066833485,-62.292823771889736,-1.3805160412951551,-1.1310448994435087
48.8258985056228,153.19214086516558,-18.15923967031476,-2.5786948290708764
46.71723529137671,257.7441353372509,-26.104256517494285,-1.3528496841986068
50.55181892542573,215.17468732783198,-22.50121546860835,6.2732074114216285
59.929282537785284,71.07853048236973,-10.963395812930397,19.849716815441838
69.34474879414222,-92.15830787426844,2.142932846630811,34.024850038929465
72.12780384615212,-207.78232053909426,11.646728497986048,41.37134507315709
65.77060847302833,-250.91010802354603,15.452103219190887,37.191711124505915
53.89870953343253,-233.7618489889402,14.257333324232988,23.247330773739627
43.19785224956285,-185.49166961778369,10.271711878431388,7.257562683937159
38.17078288821522,-133.5564004498636,5.895671707522252,-2.2888277699875266
38.122084395158126,-94.32366979295819,2.7931223963261456,-2.2073818484072234
38.4400405487171,-72.0897064738377,1.5047890960770076,3.6059659394383816
34.76032550060213,-62.0232837407741,1.5419901641124556,8.14587477996913
26.604397975030082,-53.433754513794334,1.7458567150887858,7.274826010236862
17.6063533537723,-33.30106691516951,0.796912888698512,2.614308603714507
12.196525661039493,7.796041258241568,-2.1086408613275425,-0.5566169982088764
11.690613403473783,67.83375380082542,-6.610528805700474,1.7697897675836574
13.217848542533039,129.39235818082972,-11.076269829133643,8.57911016771332
12.082921272835465,166.5696099995192,-13.382420364209699,14.36172419130849
5.085803800716152,162.43373822242486,-12.26330421657259,13.95987355963479
-7.718228073560401,125.39209354088605,-8.338255329061262,7.992680540673583
-23.169741856055435,88.54083552190724,-3.9666972889724965,3.707876373087161
-36.26758791279359,86.44661953186747,-1.7405308691279036,9.502454112042079
-42.2687792405369,123.85150827551094,-2.426737292405061,27.2923515007996
-39.31761974385456,163.49695885676402,-3.955505433811884,49.51447352504336
-30.025397674824028,150.33282570064918,-2.746246383428157,63.75521280726366
-20.266813494588643,59.61235545423949,3.09307841009114,61.35551318593824
-15.680844754623209,-69.83605124293983,11.218968676880628,43.15110281663454
-18.504240789420777,-152.3987036696566,15.904347005234799,18.2595977125313
-26.78977888106167,-120.19032115112593,12.480780006638138,-2.5653849605972865
-35.85684334396858,12.233964660731035,2.041995130627496,-13.784048060278469
-40.73217119298355,142.49413836274715,-8.042412224992331,-17.352462409919934
-38.608918742371586,152.14336858229296,-9.239862842619573,-19.39022020678534
-30.385065494238784,4.732567771498899,1.0489437304670854,-24.427535438171837
-20.16936216312235,-214.30945799503758,16.564895334930384,-32.01625197658192
-12.683031352388667,-357.7632924017992,26.53999663678844,-38.03108947685314
-10.334412904793904,-329.93648384143546,23.990880370312343,-38.7313732355031
-12.14232677712088,-156.48984326625498,10.875406884564624,-33.71090989559294
-14.975797917704242,45.37089824280304,-4.106648255007283,-25.656299904626415
-15.7864914123829,162.22698077453168,-12.594439252833064,-17.795703733372335
-13.336330359859751,160.83243171913884,-12.192274417885917,-11.238021051385225
-8.722744294514662,90.8557338203639,-6.539416779244455,-4.003016847961887
-4.578938793689326,27.68663336254433,-0.9959509090417542,7.474618221284653
-3.3021116392226157,10.969519075169332,1.7390248290594001,25.069594275269605
-5.391971587359546,25.068898762756255,2.741721606509971,46.24773580130522
-9.164696059985285,27.69215439533707,4.577701434738306,64.30065283934763
-12.022827263322615,-3.2297640279666826,8.017414273337625,71.60252807401399
-12.091479316370547,-44.59105916878413,10.58721248853328,63.44032243945087
-8.94476196475045,-46.6422546187181,8.30298629542973,40.00420229098824
-3.2713002245750635,18.011559940479284,-0.4996325887199226,6.147012599988444
3.8141210636210974,115.42115311538386,-12.29583508833357,-30.25845320031702
11.2255972671078,160.22001746495957,-19.434653661140405,-60.81469888271349
17.997837977832898,77.66541127741128,-15.32558580265299,-79.41166234285178
23.15821339073211,-126.39792393736501,-0.14446175348148987,-84.09078749623146
25.766661878944696,-349.7589758781416,17.920451140491995,-76.91383180567543
25.502313783069518,-456.77318236703,27.7383570486831,-62.363663261044024
23.394400208275247,-375.5146299776989,23.014657983394134,-45.649634254533815
21.493790908954516,-148.88948868187242,6.5114589380778725,-31.321580346239934
21.06837060878703,102.10731284089728,-12.520696904392766,-21.728976664606936
20.917284400335145,267.1260686335985,-25.079240547046943,-15.767774479349463
17.93369191479171,311.54078086708154,-27.695773734945508,-9.465202927557993
9.855385367128536,274.0503720391982,-22.82975335992217,1.091608957657002
-2.2928263333023153,215.77143057796093,-15.412856092652548,16.38451625773983
-14.277773378919997,172.19542250616902,-9.1205939412477,32.37998955260679
-21.02419073278404,141.9942062287011,-5.0079921361194755,42.74149116558966
-19.340157278733045,107.88866932517206,-2.481947999535792,42.92836843351465
-9.376635311865613,62.04270587786101,-0.8542314470747879,33.4840867363682
5.6655676832069295,14.141483731428009,-0.0146774690208923,20.06914923765796
21.154567331136693,-19.33462255237668,-0.10872558159607754,9.642803479250142
32.91573372324914,-30.769296065500722,-0.9789239028220416,5.245903187470079
38.330800409419396,-27.294448321110718,-2.0247331202646057,3.773275024884566
36.577356811609114,-23.2246138313641,-2.5511878286501486,-0.8599620938084982
28.80090713160433,-27.828851087236917,-2.2313441668864247,-11.746054667004248
18.334741064431814,-40.08844848512446,-1.2564278406177813,-25.68618733924926
9.863285716601249,-53.44811656362963,-0.05619093005061052,-35.408744837745616
7.016175641048787,-63.29383822963802,1.1042965652101195,-34.9297438626654
10.012300537459518,-68.81584288023407,2.199945526268053,-23.514507720031197
15.585095367439854,-68.93196116011615,3.11431323035433,-5.863143320074922
19.265921063184454,-59.31989409186607,3.392478338382515,10.804780446817459
17.887018895364996,-36.15231275446183,2.5969667260580205,20.75746578806786
10.605285698544572,-3.5224086125752896,1.0384342071491492,22.70824466772978
-1.2973749601146534,24.45449002611776,-0.020607554069438105,19.965287202250465
-14.945928535089042,31.672254025706316,0.8042627818269825,17.552490722066715
-26.692943597016995,12.236544753562319,3.808575274485134,18.38501555614137
-33.441574484476185,-24.549804998191362,7.796154674710718,21.4270858801075
-33.88595666584535,-61.27487580249917,10.906804973827258,23.028213047322517
-28.858794295864442,-84.78321279465648,11.921381484718207,20.108173010997866
-20.821019129718586,-92.62495589005086,10.9475284193531,12.797785293327033
-13.00329720990299,-89.24173705608835,9.042876677961933,4.748946421703124
-8.289604038178837,-77.88178971750466,7.228079982248114,0.7283957183546095
-7.929057811690541,-57.440783895292185,5.756128547687647,2.917468682039865
-10.933066896628183,-26.65561590334394,4.18464813669666,8.771820608972865
-14.912913241586612,10.697364708246745,2.0301718572160903,12.631244741607382
-17.563488584190214,46.338334956628636,-0.6997504054100421,10.2302553183414
-17.202505540709772,72.39916385865463,-3.4928565720525944,2.541087548770668
-12.324635114105286,83.86674449140631,-5.578297714097155,-4.220058797725939
-1.9038505857544372,76.35807410323908,-6.06982209413773,-2.607994444915205
12.75696834110219,44.9961620402801,-4.13841334805686,10.627873953168644
26.498280409716664,-10.42956982858818,0.4671662249245041,31.25588020230134
31.67031102592757,-77.95415182120757,6.787343699751366,48.96942479498921
22.55449969052234,-133.17231783696778,12.63636222493036,53.34633873850333
0.06765875246873274,-150.36224101617918,15.542574244018962,40.76441831126731
-26.873258590748193,-118.37843579006457,14.098134658202339,17.210591282320955
-45.29023324219006,-49.30540393744302,8.788138862142642,-5.368677703216318
-45.90541761917423,27.77055538334551,1.7550859460208854,-16.49111536864337
-29.69667186927384,84.72241008234549,-4.3715931604047595,-12.990988631964804
-7.798263633956054,111.28720619197435,-7.905904030966003,0.1203225476227679
6.036382325685762,117.80563843787513,-8.891311696328756,13.28552281787315
4.773877843256822,121.81842941700168,-8.662185087666876,17.787514091469703
-8.036446416551497,130.38826621781925,-8.49870316175578,10.236625330419333
-22.054714203548368,133.8108301999243,-8.528619982258661,-5.724193223147188
-27.480323359775902,116.37710780497883,-7.903644675030294,-21.53420302735364
-20.469449216123923,74.73049969252028,-6.079717148112728,-28.93451369147175
-4.3250061232864585,26.81293322458866,-3.8519699426868836,-25.21938730236808
12.924748050948622,1.3860737307234547,-2.9477153336685724,-14.807843053676384
22.964309651291703,15.29704893198447,-4.454114011068482,-5.957096967078577
21.4462792750379,58.15988980296559,-7.607719239797485,-5.156309502200912
9.597546797811916,98.55574453957595,-10.129176696715305,-13.20459169430116
-7.54028152090212,106.23978092955367,-9.78446580869704,-25.273682007244776
-24.175447560824765,71.14842066446617,-5.841865308815081,-34.4023381656403
-35.65948688055531,5.693398826851084,0.5731867465638997,-35.970971063630834
-39.069919897177435,-66.66384597919577,7.212661693374397,-30.42925059561541
-33.81745299807856,-124.51090051514497,11.865167572801592,-22.76155231484505
-22.29503681670523,-155.45628505303878,13.27726416697028,-19.200828957716176
-9.175941462603076,-157.34890317632744,11.518903390509928,-23.25969742776187
0.8929823032575431,-136.75871635959032,7.799568702169383,-33.36837076201328
5.5140603848302465,-105.4188461534878,3.8619193679807537,-43.56728740324641
5.249908678378434,-74.26825899887245,1.0936246664897724,-47.24595304483426
3.1668894020333083,-47.461952699960726,-0.3164996960524088,-41.90935069707921
3.931999598026275,-21.12720244293702,-1.569139806902954,-31.41963092154076
12.084089834586482,11.176118940851493,-4.3778046627005605,-23.298288352420045
29.218645161732002,50.52771253724497,-9.477355649478183,-22.747552356276476
51.75039878770724,88.95690670513888,-15.691308791133094,-28.41072997279448
71.75866655353497,112.8887074425411,-20.413670397888513,-33.59574524265198
81.28378227800607,111.45273977849081,-21.25625089908946,-31.696685655278348
77.42029872924051,84.79463126580485,-17.736547690536035,-21.00884256608793
64.72890962877631,46.56211427143297,-11.810058727529796,-5.294109986083401
53.21227107223915,16.193324446549166,-6.718451626643901,9.611103457508605
52.67173824650641,4.0048928127161245,-4.763209333191333,20.039122238526033
66.3391068639151,1.4542747645216536,-5.610856416356787,26.404765279763335
87.50753990067197,-11.744193036080402,-6.6048917062460335,31.571629008470957
101.76699685665459,-46.6048665026681,-5.019198178913072,37.23134967262859
94.48562129060831,-88.043097005885,-0.4702831500308388,41.73020619567825
59.89164260634,-99.89148660804429,4.555277068410332,41.725222681457055
6.493455924727121,-52.83425595631326,6.642373459661877,36.286208183046774
-45.18164017428474,43.17633759829995,4.493229696102501,29.206218491138888
-72.56198369306566,128.8136168066195,0.707524933212357,26.73981587959063
-63.744743556441165,123.96810088519557,0.5638626184634753,32.529653378847435
-25.225473827296433,-15.581359016519603,8.143018459148866,44.34094375057427
20.728027544475907,-251.8284084466573,22.470017630642655,55.552341092555686
47.85700728080508,-470.6150681319689,37.04469948144026,60.116282306236435
39.78901900342613,-548.2073546466455,43.88007144275096,56.965451159843035
-1.7776157088429132,-434.8446455929134,39.21950337737287,50.565289109676094
-58.44880860239143,-189.5859020102211,26.152972340476836,47.37630990089044
-105.01346606759458,63.13855144672143,11.90365958871326,51.00219602374992
-122.93763748529372,219.17928765008696,2.4012634112851314,59.723284706988
-110.17252205072415,253.6359363368701,-1.095343109383215,68.15848861316397
-80.82061997500459,213.7384358209513,-1.1125669884998506,71.32646229672878
-54.35394984384295,164.92191390954522,-0.6995593121813284,67.50776597008102
-42.289452087059644,141.48659196998335,-1.1093307863977973,57.953541574922326
-42.57579972187133,136.74793606690545,-1.8660625943385627,44.77790732367629
-45.004842815831495,127.46105953035594,-2.1859565891926933,29.599515096773462
-41.34546416561254,102.50951050942942,-2.043888320721748,13.70951193013201
-31.166808610018368,71.83182975833715,-2.157016667443475,-1.503796786245555
-19.99963336505056,54.13474174420916,-3.2645139175745848,-14.9876156586771
-13.502365421144841,58.78707113299882,-5.455327560889557,-26.89039956796162
-13.247496802764575,77.94425457918264,-8.054347148823979,-38.719876984648955
-16.8904928661522,93.52549086839191,-10.064697466058503,-52.3062073726223
-21.617103810331628,91.21388617221889,-10.725268884284525,-68.14038661399171
-27.402859279537434,69.57109540260868,-9.757296241062827,-84.33180531444056
-36.80297071812325,38.1683438284471,-7.299599995778097,-97.2727495873208
-51.0551802785627,8.078398560906045,-3.8043101291118844,-103.79016790631938
-66.20482894575849,-16.36208698657476,-0.002539977696229225,-102.97779472349453
-73.62069152672744,-37.38263562606227,3.1573442193504655,-96.03454633536504
-65.22270690644814,-55.96167875767029,4.650356804791244,-84.63758983547224
-39.129526739581934,-65.25950913082855,3.6042917743932477,-69.99393814291146
-1.2675695986605655,-54.09406533572169,-0.29201094441660136,-53.49263621740746
37.65452711585636,-18.669656638448316,-6.287432341476062,-37.52768160284408
67.13898770822688,29.765756176206576,-12.499792310237995,-24.92973359159212
81.02736045820998,70.87975767968467,-16.747592395971648,-17.509465049234958
79.31129262173798,89.93685526324124,-17.863986266170183,-15.315443380406283
67.23406646928409,86.68970801213848,-16.33487683136507,-17.064707357300552
52.194171815080026,70.37353803460886,-13.607343619120574,-20.95096870325926
40.09265466342496,47.63155760426733,-10.75251038058213,-25.24367820853577
33.201525191759146,17.06333768495189,-7.807491107872072,-28.588154963058926
30.530285674011505,-24.108154599855812,-4.3258425569225585,-29.754163064021405
29.881068811442724,-69.67918053530445,-0.3763240008125714,-26.88596398053394
29.92008068307156,-103.29513196287945,3.126021753473636,-17.42949972381871
31.033737205495754,-109.48455635545885,5.0442698386414415,0.16569129855187847
34.62217442713163,-86.56386285435038,4.912858947601145,24.019240735085113
41.2985956806882,-48.771739027026584,3.270890019430981,48.268558776585
49.25639227349208,-15.782550576642992,1.2356883301309598,65.4795104207019
54.30640322011439,0.41800420351058326,-0.2228439529060243,70.27070447734133
52.05762327067764,0.3022920518657795,-0.7031283612482533,61.745220472611294
41.03620403144662,-8.67268622022011,-0.263435462055279,43.966416150407625
24.657238724312094,-20.65862572354105,0.9224908610176186,24.770191561291526
10.354213895202488,-34.943543905581585,2.6842449450087367,12.782619193192618
5.53736267694217,-52.42469260480103,4.657423944215024,12.965245610799668
12.331749308469579,-70.08200400006075,6.167781930009028,23.246322816323932
25.143007933032788,-80.10529250770854,6.5456066397678185,35.60741875379488
34.13310312503511,-75.13729925348092,5.62961267872779,41.70643911236313
32.697543296298086,-54.4014881434913,3.8811040078278847,38.64214306147974
22.475646411514724,-24.52918765238462,1.9629243458012446,30.138804115924106
11.081473057516252,5.328505393714679,0.2835276115916011,22.755506694246357
4.809128789382555,28.76818154429155,-1.006327568846971,20.845303646221886
3.4352143938822297,43.00635096200826,-1.6826954551115343,24.143126263797022
1.601915507306078,46.12300751480658,-1.2799050574830713,29.041423410041883
-5.476809040828577,35.4564193193037,0.6488060210568518,31.816445054754507
-17.68119290510439,10.216124601415451,4.026527356973293,31.050649223099292
-30.339099257063882,-24.082863849642543,7.936717110557846,27.569806250474233
-38.165557342968704,-55.081226958123715,10.879540215066916,22.567662218114304
-39.33720613832906,-69.70235374444704,11.616699768785724,16.218632661581804
-36.62007705503599,-62.798932414332064,10.046485484954445,8.301515724026993
-34.63402754491838,-40.64354878503537,7.313660026798118,-0.042061949689898286
-35.4269207829577,-15.967889815771597,4.94841983345065,-5.680552431739259
-36.44578549859963,0.8304878444881408,3.7798491974055715,-5.171395284865706
-33.160941385435216,6.8543746443093605,3.584339908032666,2.4025043748067336
-23.9953801973049,5.4321567962897825,3.623062073204287,13.785824644936904
-12.71009600335993,1.6790907897841074,3.3670493545344375,22.57751101720805
-5.935542445673931,-0.5376983925474847,2.7361906490925025,22.499510628873956
-8.181287738110097,1.1029633419938862,1.8516160773541717,10.987878691314503
-18.5037267964866,7.970128222204689,0.7477874755147631,-9.0824462202211
-31.064978734612296,20.137591167825473,-0.6447055784744432,-30.644820771668215
-38.81890162301382,35.6298852234662,-2.3096413792338515,-45.89211437589828
-37.79747970057021,51.06635652267063,-4.007527928914959,-49.86048590157637
-29.27443905464906,63.770774510275864,-5.358937280687177,-42.36368184924687
-18.405929592883293,73.03522750191941,-6.0845059600719695,-27.757210019054273
-10.48892524914943,78.89282351095711,-6.167397399703372,-12.884256008695662
-7.862291632243291,79.83490665229124,-5.7582654833337,-3.917378972316187
-9.589251094984085,72.34597845985833,-4.917322963412459,-3.4396649496609393
-13.236497199687616,53.363734858411654,-3.522920590547107,-9.578834966748957
-16.56875640647526,23.981479416221305,-1.535318228716448,-17.925297734322797
-18.11608665594011,-8.763934184672388,0.6477583403528616,-24.700192952250433
-17.138114411094296,-34.20728171041317,2.204204539876399,-28.635909545500194
-13.498948543177203,-43.294564065324515,2.3341620313181948,-30.464413139492432
-7.35683117195677,-32.66369719156624,0.7146545836601306,-31.028918280825895
1.112036104285919,-5.001871546235424,-2.3753003338137084,-29.823359750002023
11.305531639344105,32.341391108207816,-6.135773550314619,-25.208269827817844
21.29114186153006,67.68230726408017,-9.338992217625673,-16.373518711809314
27.73466431658572,86.13515026273129,-10.606756825470612,-5.550548141003379
27.491925940950342,75.83485363885221,-9.08993274962148,2.017141216319927
19.912009698176764,37.73945397795338,-5.218811655390389,1.4619676378503044
8.012613413576585,-10.209274918343366,-0.7823125382309826,-7.304052858130785
-2.5233802954479954,-42.25763467677903,2.020028581400045,-18.446878486150744
-6.223391093692712,-43.25480016482504,2.039900254608878,-24.050229598399312
-1.1517851276281201,-21.471334767557146,0.08721971189153316,-19.80389477486913
9.467036311031233,-2.994015168088469,-1.558758981667726,-7.662293581970779
19.007882862863237,-10.036809852545137,-0.9000043579836693,6.1827519978232095
21.893691883520756,-41.16058727083206,2.0577292121967234,15.520253039241867
17.476860214903347,-71.7950421068441,5.170051693287149,17.304742898445205
10.269929116520691,-75.58731332209483,5.907735460135789,12.624226125274966
6.532051070917309,-47.11866180597543,3.48245523467574,5.782049597156497
10.013931216226778,-5.166743305308892,-0.5947582594245473,2.003849039200112
19.691736909677022,24.97586299762598,-3.899367778132478,4.622072783408284
30.52000102595103,31.805988296211297,-4.953649917868345,13.280346256839671
36.59516796120887,21.998893020633588,-3.911104828311734,24.359183500816442
34.9564272222278,8.042360819812775,-1.8228077015694,33.23983647960117
27.478232647962514,-5.595434055778982,0.4546136181932451,36.75549138145297
19.191005652790185,-23.446963366606692,2.642206788619594,34.39969460647569
14.312861366773271,-47.98870294153699,4.6014142506739555,28.011726561954866
13.514113791962995,-70.27367940102575,5.801975996126008,20.520463176224197
14.539515604192903,-73.74231386754181,5.424363713446192,14.513606206874398
14.772349475432376,-48.364403184943576,3.0919177996881415,11.242818347916261
12.935838438668679,-1.3256765374009365,-0.5063749508004416,10.34212917761596
9.045172730337239,45.84476631867081,-3.8122705729097897,10.122183632563313
3.775677092043908,70.52225046524127,-5.315484560564911,8.249926126751397
-1.8439668775046132,61.052053578799196,-4.370705587431925,2.9330512227245333
-6.693799091097466,19.903962921587837,-1.2796024700417612,-5.526811251112104
-10.065075374437226,-40.22118204086273,3.1453027391296913,-13.970722816375162
-11.998710340990678,-101.10841782629028,7.876066378309474,-17.7273899698968
-13.15370039810902,-142.3946344211863,11.655576535529832,-13.611153006286365
-14.464499387533678,-146.69537344865898,13.15463658006105,-2.288505859274283
-16.78319535386419,-107.87111248012532,11.585019954778682,11.709197630206349
-20.399523314710944,-36.81292154870445,7.275642929790903,21.9438060817997
-24.67494135191377,42.63554691996959,1.5446740126367318,22.770875856072813
-28.354061179302583,106.59008754879518,-4.038355063156585,12.170408872217122
-30.38955682624795,142.41014393257953,-8.261180302962357,-6.107188277776808
-30.264530369476844,149.5134771695828,-10.340208620213758,-23.046707858822355
-27.46335155112907,132.09063580473287,-9.793948171006898,-28.766181560021288
-21.1585497315793,93.62868115523247,-6.586706766670286,-18.63245120513703
-11.006785572830728,38.90979942599154,-1.4818788196383834,3.480409328873187
1.7513104376313575,-20.902792594671926,3.8739885975374624,27.335764731108675
14.288481768936359,-68.54652943424901,7.474121367445545,41.982990559738454
23.317083310583097,-88.54697576410587,7.905869152252454,40.962834085573746
26.292174908568395,-75.88426452530408,5.10546412899522,24.663052193928994
22.246101857720795,-37.423924287963395,0.3100421086851512,-0.39351674826362393
12.455479148666772,13.875713671784556,-4.7587288189673425,-24.683662236559936
0.4540425954360747,64.80291051720117,-8.75114309573452,-40.10182545456004
-9.514804913763367,102.95356744384,-10.914776327155671,-43.61627121563962
-15.02240904980987,115.94620567406723,-10.797381909086964,-37.984269917183816
-16.703840082936342,94.33086453168994,-8.087362482587125,-29.007785305907507
-16.861000149752655,38.62298429524183,-2.957710068461104,-21.247353325975222
-16.779135558552415,-35.068656341388994,3.4116916658824863,-15.295103830397913
-15.38955516995982,-97.3980667383971,8.790444551560267,-8.596899289899985
-10.449024657684564,-118.58230207802504,10.732180206741603,0.9206826438826987
-1.1361140810940493,-86.41704998491753,8.023519190740153,11.595267318142477
10.094984446684439,-17.024462221718007,1.7817941322266904,18.31452116492827
18.148570823120007,52.712388832571285,-4.868105023858124,16.496615494752447
18.55439660466435,88.39964553924256,-8.651822188026085,6.313452350183378
11.144282142388517,79.58745854333263,-8.237659690559108,-6.7923461770487386
0.6773892727281265,42.27789408062543,-4.843658952357385,-15.879846645500493
-6.832970804196506,2.231191563610804,-0.9078732232441857,-17.3618016785868
-8.909179812425942,-24.50711364050651,1.8396260268455438,-13.082174528298022
-7.75206655354922,-37.39702465990838,3.1574812149510847,-8.216670510079393
-6.829311472345643,-42.49307330026103,3.5867829947076344,-6.708278172285307
-6.980760085628202,-42.060387155510405,3.473056858506322,-7.806393663320869
-6.145086439456215,-34.3832564730777,2.8561207116513767,-6.774388873061746
-2.2430598746863075,-21.154552955408043,1.9810143018750148,0.40911817583167803
4.441335218280825,-10.434374302634529,1.4083869445738546,12.46877436392281
11.566916428015384,-9.832348133878636,1.4532084058085677,23.01595936137226
16.66416074770285,-18.049200343132178,1.745199145612872,25.741779525584946
18.52580077161298,-25.619114667698273,1.5942354989806595,19.731656094134284
17.150246425446998,-24.634409618804696,0.8087546571722515,9.911084063983282
12.90731641603315,-16.86565617231229,0.05675354619690389,2.728328355097939
6.25459843006046,-12.07149217117814,0.3596995960509579,1.5771948095452741
-1.3390959924150685,-18.905157961171895,2.154934357596683,5.595300105315869
-6.419525420094341,-37.22951117845543,4.728293037380315,11.44740409571382
-4.768113450317456,-58.00107538987568,6.547583139621433,15.566697423221754
4.850906241457609,-69.84802310991013,6.339001036870352,15.414518629938959
17.78213015411944,-66.30307066917612,4.051470113991254,10.005709622287155
25.43358980214246,-47.79401281177434,0.815279203014521,0.2629691441579993
21.58260955938073,-17.87672919001452,-2.0891087260174834,-10.840972218214814
7.490286712700919,20.883168865706672,-4.220321048170151,-18.94127930914282
-9.018953589172193,65.98158057341587,-5.967995232139511,-20.24989490930471
-19.50235383481004,110.04888805340086,-7.693973967553974,-14.203249915834736
-20.50779454113024,138.62011480882094,-8.994263848360445,-4.607019272574364
-14.717329884875362,135.6777087941742,-8.801466243121594,2.6525875990304844
-7.743885507933154,94.74391264211611,-6.234743893042022,4.22891311171398
-3.617098566445036,27.199946670387156,-1.5391557805034748,2.1870534395978405
-2.286141096553707,-40.02472294046655,3.6308158279801197,2.0601143033610647
-0.82387941978663,-77.87093690744231,6.955387675716572,7.613779042975237
2.838239639436997,-71.1467764328299,6.825677521580834,17.061640761695767
7.138307676545047,-26.01313132484212,3.3421025814562224,23.930567881484137
7.862067198406489,35.2134878010087,-1.8061524497912838,21.66413910974401
2.0713875177400025,86.47921683718131,-6.351151838474064,8.591357606447138
-8.639187807832997,109.02376175905015,-8.514398596877587,-9.90146350949466
-18.423762415852966,96.57386378109241,-7.59676986713811,-23.75027266709465
-20.8194909708648,55.19993829662552,-4.102024297407056,-24.58254566702347
-13.212699529668548,-0.19760940343206418,0.496719859613334,-12.186220743329642
0.845205838125449,-51.51472624490547,4.381279724070292,4.406549663085739
13.39192008203785,-84.16204635358028,6.272832076750782,13.220823978381231
17.335028018888227,-92.76382571970662,6.065583706913535,8.425327880766282
11.677918580111495,-82.50192831660746,4.695505730348585,-5.386645409987826
2.2610816974776067,-64.07288692068795,3.299965520292116,-17.17601949594839
-3.0592135372216576,-45.052263550658495,2.341711415749622,-18.034921846044206
-0.8041902110603383,-24.728680513524,1.4030408552038904,-7.403422671225992
5.70393195651451,2.5120821641178974,-0.22350040031141435,7.33447388725096
9.687490803062861,37.83339577138475,-2.6640582725242434,16.7602108340522
6.755633681745638,71.24796073795619,-5.034595316667087,16.0458349878783
-1.6068483959451922,84.8449750902079,-5.875917630386682,7.587580838040783
-9.30870517443535,65.46059503750107,-4.2549389846869685,-1.760175933677487
-10.467601778871753,17.67150420648152,-0.7134129295284246,-6.167391330446736
-4.168243700251865,-34.8110931483108,2.847999580753963,-4.613800966442273
4.584180028804926,-63.75686151281611,4.471758916463396,-0.563544390026538
8.84145833261146,-57.29710085095442,3.6229509231215453,1.3210188411638577
5.543663697399828,-29.246351346417107,1.5441536104274418,-1.3967117337467785
-1.9169964991524642,-7.227660926947461,0.1539673464059283,-7.298491164967181
-6.720823545916242,-8.930771129016101,0.4500975907875828,-11.88726369551494
-4.415320331656279,-27.499784390415993,1.7632845206960126,-10.635557343590206
3.510164628623843,-39.19784861518532,2.444324541612667,-2.867092446515063
10.785661656135654,-26.19105324841065,1.3892606803986238,6.583602812690474
10.931130816310489,6.019756417534888,-0.8635446829732761,10.222533436356022
1.9887804886946054,31.326531922816653,-2.395005193730284,3.698215467182232
-11.652941070073235,22.941224511142238,-1.349061145690458,-10.200177032643364
-21.9019490081864,-25.44276288505062,2.5778180441370266,-22.91030799958863
-22.761957004333603,-92.36171864355636,7.728032018069645,-25.907648912885204
-14.996510806734207,-139.9309835565652,11.419748054922994,-16.522138008969403
-5.481760682025424,-137.16685342769827,11.588180035541226,0.5452514727098907
-1.4330559042143123,-80.78548006433539,8.089245694425221,16.991212992262952
-4.428906845092302,1.532434016767307,2.778090350169367,26.837825882370673
-9.319214878328035,69.85000453729151,-1.821101298667693,29.64375886586828
-8.671215030702882,99.69500811043417,-4.355449105800247,28.65230945879383
1.054897700484,96.61469752166278,-5.460962763803821,26.375976553487643
16.32388310846253,85.6822986541652,-6.751591973255089,22.35942454929524
28.625757828302394,86.07723646698507,-8.887117901559586,15.003267171227298
30.383422789218493,93.79323588240727,-10.620984858645546,4.6875160375358345
20.281034950823056,87.40672104218517,-9.835131361759235,-5.636098799033861
3.858510290127023,50.823168615710706,-5.628446002149856,-12.837286845805716
-10.816911908901242,-7.966452270431944,0.4894331867766494,-16.040137206717727
-18.278140557525195,-59.20231280494913,5.388544027513796,-16.612166396581447
-17.439383990102954,-73.02601773125629,6.416152717026844,-16.28583735357247
-10.028549198376465,-41.92307443931076,3.1275509197386993,-15.648522382601211
1.258990164150905,14.57777828134744,-2.5598103381797923,-14.154114572413667
13.149004411475012,65.34631636023705,-7.725799792728353,-11.109281814963465
21.86897903189717,88.93597456210627,-10.229860570171011,-6.604624121132728
24.257984795719533,83.65353762114978,-9.659582796625761,-1.7164123778910565
19.241994425714026,61.11046671800589,-6.929355362141511,2.210073676975584
8.31142019100677,32.43628337204065,-3.1466742324115398,4.636334082559343
-5.098118585166112,0.8809139924953949,1.0742300544551804,6.121897980718476
-16.615631173968854,-33.95852473904548,5.313694249858817,7.395095997587738
-22.192853285397756,-67.67587864846078,8.731779800167343,8.320510748288912
-19.694108993320725,-89.46913130816343,10.148604648049078,8.109010551991256
-10.05268759251385,-89.6389559014835,8.877237068377708,6.45676606109531
3.0667683134681147,-67.56326035847945,5.3640415939416455,4.07535341231926
14.98694818935867,-31.666699562692088,0.9247339560158219,2.0304120274825106
21.924228772073928,7.114867247492544,-3.073909612846226,0.9040296748146953
22.237998757716895,40.151769542147704,-5.75117956007193,0.7152093558604109
16.88843675539216,60.181189428681925,-6.666234125829693,1.2096464326055623
8.855174750661025,59.17546751712459,-5.5896090269117575,1.7531554731085248
1.345618645260969,31.611436568356208,-2.575685386422327,1.0559147052895603
-4.14588470285267,-17.374720041932502,1.6580975850609259,-2.385063251082008
-8.126235437397337,-67.7498692571824,5.5481657545106495,-8.937662139893327
-11.469701957793074,-92.40432677665537,7.224591777532662,-16.57343196695738
-13.79509266235304,-74.20638740150724,5.6524974466213065,-21.107883400383987
-13.667738709701586,-18.873911643769706,1.4677760665009556,-18.574846481810404
-10.185313941246667,47.814876910285065,-3.3506702045368364,-8.540956672898753
-4.1260078098164055,96.4021282454489,-6.766723012599515,4.532961456924282
2.314977026151679,110.38050155152493,-7.793689779030926,14.059377068194781
6.755972004229905,91.42380087610667,-6.588561094261483,16.590760124235857
7.921646305985077,52.46615389972037,-3.808353695241599,14.605580285855233
6.192499932937021,6.681017965611097,-0.06503833107785148,13.513438336432213
2.842990930439859,-38.89054318944496,4.125978370246488,15.507500287714684
-1.5888123050246723,-81.78489447784932,8.155651845096088,16.637205533614416
-7.982484757846999,-118.15116118102561,11.254365941577223,10.492502185345957
-16.984366689311578,-139.3592693381668,12.648279020440194,-4.787957354756911
-26.409621508608478,-135.47193020942453,11.851174282228708,-22.870514138254226
-30.986793248260454,-103.0901067456441,8.952055905370443,-32.67334892500546
-25.794444855573236,-50.601249030613076,4.71287864292911,-26.551365721470823
-10.76382978438973,4.20214520568234,0.3299329238413199,-6.859016678315173
7.8720334906687075,43.12670483546409,-3.0603938596128297,14.61061183538377
20.825594379609946,57.272701915201566,-4.824895451083775,24.64321690502892
21.588043858252487,50.94658643512976,-4.975324707334871,18.28875884065146
10.776915926763213,37.2999805358637,-4.026441378943197,2.3509929528860978
-4.249670807664762,28.866361106508144,-2.7108749834816983,-10.392818166899302
-14.574098302825067,29.236257231074745,-1.5949790005540667,-11.227424440328498
-15.907239389918866,30.93901163752508,-0.6865159458454498,-1.2201585859292727
-10.77058818092761,21.280048607642513,0.5881937679082666,11.36161095765071
-5.114123555208267,-6.178717365524713,2.718097590122338,18.332290136072974
-3.002275941413501,-41.94061218224047,5.195227118152487,17.052061909645687
-4.260254501654104,-62.619534489770494,6.430402097033854,10.779420216867372
-6.092614790164555,-47.49688255982928,4.952617111390802,5.209728920141822
-5.758584468974521,2.0532120993271263,0.9058189216658384,4.390771664687507
-1.8229454976491524,58.45373144615395,-3.675832887041608,8.477472055554744
5.686887036661277,85.66150238026312,-6.222720058687523,14.129241968701319
15.159142243213214,65.58663098410116,-5.513794675927169,16.763710231448645
23.70625416050515,12.033053401750072,-2.5964091697401535,13.081999409103796
28.592880310758293,-38.37392185373535,-0.08906858875477909,2.7108141693960013
28.92645792380961,-50.65389980098536,-0.3967322011411052,-11.32965820375789
26.072070380131702,-13.61227517571534,-4.077986051487869,-23.488572922373137
22.53680501500937,54.012966920421235,-9.447569359411,-28.195617540992973
20.297404610983406,115.05206728173317,-13.604321709595165,-23.385567202018116
19.475431682339952,135.1121306796457,-14.154116351302175,-12.702177570234696
18.0504705152215,102.48077051968214,-10.620694510141622,-3.964009565881731
13.346700207865254,36.25959321582308,-4.817979202706627,-4.09312129241097
4.863365243409898,-24.18162022133668,0.11535343246703866,-13.89588062961608
-4.092341055888903,-44.931535049555094,1.681041987520287,-26.764287269135092
-8.376397945079786,-21.215604563612775,-0.22611100112430574,-32.74590642653015
-5.418729097540733,20.361783954453422,-3.232534397332174,-25.467937325895466
2.1351715355458536,43.49721758707543,-4.32700446244868,-7.008812385871061
8.19475361913609,29.51974667956242,-2.155909922314418,13.05292911316961
7.64378972529757,-11.052237994463695,2.094126486016175,23.928031403377336
-0.4340589741087966,-48.6814007914674,5.737931482946497,20.560206947139193
-12.702444273445952,-56.188574582252095,6.509309130676621,6.180119966496866
-23.91024685620309,-26.178812451227742,3.95858863719893,-10.656996239092962
-29.831950735349224,25.110050528072538,-0.3686389415353396,-21.42473850690967
-29.305503764183168,68.1020013995891,-3.8604994889133573,-21.60153490054323
-24.373985172604606,76.90532557283544,-4.282968324668803,-11.90243576257209
-18.555058183980112,42.57802164027479,-0.9558408243096137,2.6446076848750395
-14.623390554489433,-24.207258430101398,4.987004587692273,15.10646914671597
-13.45882483135164,-100.7490235276372,11.362255859563419,20.0127881459533
-14.120323398438975,-164.23590888491043,16.157565217606372,16.350156573551324
-14.333245993842485,-200.81667075049492,18.37313061308764,8.28232547065268
-11.219820295192598,-207.73474012148424,18.067691707515298,2.781550200978143
-2.695079573262408,-189.7936125189068,15.870034164167597,5.420745597150728
10.980397533409297,-154.59633390111642,12.468559226778208,16.808127931187595
26.888616494399567,-109.31187374568461,8.319540756670461,31.776642178091365
40.73525799374973,-58.625183748964744,3.5636834511816824,41.98811902269477
48.44995264773705,-3.962699244896982,-1.7980796525962721,40.74660418743322
47.11035905090936,53.879226729991856,-7.430531175338011,27.226529354170705
35.69086516216565,108.86731060618283,-12.22040116427834,7.2210617058437325
16.093995671215065,146.43604932912774,-14.44430869771131,-10.333781459718681
-6.666714944412904,149.28764907080387,-12.726817861599049,-18.73263131345312
-26.405674125344678,110.90692552295657,-7.205282607399267,-17.12061921949232
-38.836351746880204,46.05528978456886,0.02531037495399469,-10.201651326350628
-43.16771454900354,-12.993453285665716,5.722955454483464,-4.589218628208558
-41.11776183747354,-34.974052567750284,7.256864884384644,-4.2450497464862424
-34.915805580398114,-10.014823555888507,4.217498569748781,-7.914331474108581
-26.3399044748819,44.44475029505301,-1.3449581249940445,-10.45562171222133
-17.03914330405888,97.28485474890583,-6.36388737061942,-7.345210591872195
-8.961348155035541,125.42458299346772,-8.794971407077153,1.2071585587423008
-3.9784443824644007,125.90327344455781,-8.627288857730882,10.174008770217812
-2.8401922504107353,110.41001482213052,-7.21507586147952,13.745443864674366
-4.340596510706987,90.22149228863815,-5.782602121676827,9.817112971198343
-5.692062993790652,66.50962439249577,-4.500748595572418,1.227304665830847
-4.23301205360159,33.92390300878399,-2.786502494497387,-6.6895581317760815
0.8813496970356254,-7.997260311903335,-0.3379577301681059,-9.811907899120826
8.649978300172885,-48.25652447205472,2.138268449084024,-7.592294094590066
17.664116635225355,-70.02322227147272,3.212482373352912,-2.960998682027606
26.988665793933304,-63.287863698001814,1.8260645978807035,-0.14311395603075022
35.34415073900618,-32.50345521349971,-1.753693769459689,-1.819464968213927
40.022639144549295,7.007398470299329,-5.956063771451312,-7.604190290053293
37.620641081264594,38.90650501061634,-8.857632034185935,-14.967155091938025
26.46733044362117,53.105846989817415,-9.245755333538659,-21.489239213278548
8.571850246837068,47.21690479711905,-7.064828123651303,-26.00531525272431
-10.612130132293899,25.037332822191424,-3.1930574308353523,-27.754578307649012
-24.482947661671275,-5.095167808660159,1.0523135835162263,-25.331953056391356
-28.411705311116222,-32.49055717099122,4.39414719344216,-17.400694216307965
-22.124307212158264,-48.10769873299797,6.023977410216908,-4.617213403796696
-9.800376298066402,-49.19894125933872,5.901361808861005,9.452487346867024
2.540270118005186,-40.992144116064495,4.6892510947663855,19.579663291493805
10.584107920673267,-32.92678322961219,3.2732616809387736,21.54852386443606
13.445791684801526,-31.779406684447302,2.2466788200827716,14.801310476120232
12.711959705959213,-37.74759048143669,1.8143429055952158,3.5894700459640445
10.596931643956633,-46.97193725144669,2.06888410950539,-4.627823800134867
9.067846257525137,-56.998796918397886,3.152957532766604,-3.4166327293242147
9.680107737570166,-68.61481698845625,5.041948941255835,8.313711402913949
12.969879379640684,-82.1924006745497,7.2346137537381825,25.284323010407714
17.6654763263461,-93.27254919755597,8.77635568568411,39.01887377068585
21.043792049897657,-93.05784631366765,8.684920115826362,42.68358202862645
20.615996164449975,-74.60632610073648,6.5282481257369085,34.3059185815795
15.748910460801442,-40.096601740930915,2.842462231239839,17.14178834271457
8.003633839441209,-2.8250564667140496,-0.9112105956598473,-2.1502024321372932
0.20945413764613757,19.323961200030293,-3.030501431275052,-16.61262857461522
-5.122295621689994,15.821988418308152,-2.6338939460663497,-22.38378708652552
-7.3565256346977455,-7.724461042279499,-0.34636127882259793,-20.64656745780785
-8.234635118991637,-31.932471873674864,2.043805267689609,-16.53540085830853
-10.530840708452612,-37.14623084311741,2.821820529401613,-15.48716904303123
-15.729501961146385,-18.311246422576044,1.5660217544508888,-19.71011409875367
-22.928479741309022,11.298515907548632,-0.6071676334201216,-27.297586286194825
-29.973184405434996,31.596569281153315,-1.998500049629156,-34.20053674110841
-35.24993807759986,33.06985635468145,-1.748750634386205,-37.0954076054576
-38.07238822261414,24.72345514567967,-0.556362274904458,-34.878898045307274
-37.80930808848389,25.662763188248878,-0.056699277413575076,-28.043826536477894
-33.562655075970646,48.47711652062755,-1.4102464474359624,-17.207900903098608
-25.08635164287327,89.19927620144402,-4.3675822329145175,-2.783972026627547
-13.722686143347726,130.775320409078,-7.549665540067496,13.717858166469918
-2.180266792714986,154.37359446744196,-9.47030979953393,28.581424943010358
6.604031867185587,148.60213725154975,-9.29298520025222,37.12153539307191
10.72491020229486,112.38949482587843,-6.92182530531367,36.919399640460064
10.265259502437244,53.88107950966553,-2.826446961914476,30.08664012256283
7.448001402678551,-11.696831149961032,2.0029147219927914,22.059040826929078
5.37467746618979,-65.58527795709496,6.140143541981984,17.689812681287382
5.932790737413395,-92.05219484033888,8.20214847555324,17.985032333181124
8.826527917464695,-86.3098898605584,7.5947370464281105,20.133885701517436
12.763956384518094,-57.99355945051553,4.913151823275487,20.495273668992564
17.245949898202227,-25.28091200148754,1.5492988712431328,17.820954356020092
22.69164096644823,-2.1956725971557627,-1.2599699405938296,14.061076385365153
28.90363919677816,10.869297802303706,-3.1901617044397885,12.264228488969103
33.97337280681419,24.728433611049592,-4.773452457187538,13.57348354742169
35.027111197135326,48.76747886136544,-6.584303024866561,16.086425610586176
30.140683748808687,79.11785414413188,-8.378230180360841,16.52909906181932
19.899879468370354,98.08984410125514,-8.996010841308394,12.91008780496046
7.572935137807946,86.09256280031654,-7.235887142995572,5.590294387136006
-2.4416603017130782,37.38060644087152,-3.0032858448924604,-3.6492476488498804
-7.280713592758687,-32.4463009514155,2.3033022660217957,-12.794033707451975
-7.531018148003593,-93.59049263312134,6.5596356194562375,-19.893656521310138
-6.5362860567736965,-119.18377322930891,8.170759359478376,-23.324068148177844
-7.470935857868372,-100.2248564272975,6.816256511519917,-22.864783840373292
-10.839351621091344,-48.73243497246172,3.337485465651411,-20.46496978368522
-14.515634362113023,11.021424601244654,-0.8502072061315111,-19.07267803957898
-15.738226515390423,55.91120052746733,-4.36489509151252,-20.137656182394515
-12.993100364169246,73.86594081992345,-6.306918643771518,-22.30626356011224
-6.709436387711276,65.85979965630327,-6.448288471353079,-22.70288649245148
0.9629550584094323,40.54515268204824,-5.063638577976466,-19.536724183978766
6.987313103295876,6.281365274125655,-2.537129781712544,-13.699111260857473
8.84593365386512,-33.43056107297273,0.8901387328251534,-8.130277369467635
5.941604915781035,-77.94516546946592,5.00203405700073,-5.488268857505613
-0.009167713752384867,-123.0663005622014,9.251128906647484,-5.903045021299079
-5.905563765777123,-156.62977868156088,12.53252455937261,-6.8086937129957965
-8.896567327577998,-161.93603152446872,13.434031851365022,-5.375414352459794
-7.976954510180978,-128.42626346465462,11.007968296755637,-1.495858828193815
-4.879506297008431,-61.25514393720161,5.595780606446542,1.7528802107498829
-3.3156723022453107,19.166318762746663,-1.0438068324074694,0.9786730202468333
-6.187917466377415,87.78687135050022,-6.592622933006743,-3.9756574364567827
-12.524158431466658,126.80646667704265,-9.407840595006627,-9.224687396065848
-17.255398002860794,130.72020793765333,-9.187441157306923,-9.535268106325399
-14.931879162834695,104.53486457601264,-6.736514951737239,-2.2420115846445836
-4.556898164738492,59.951847679910145,-3.2881474844202394,10.552961107713115
8.691317258230393,11.728409047586513,0.07314173897114475,22.931547246930727
16.434455320262032,-27.082670469673193,2.7503450261270315,28.68509624917633
12.643677792738414,-50.77013605041635,4.775643517828795,25.25931203942872
-1.9429208781958103,-63.1097288595278,6.608232239444313,15.437800435838678
-19.47567498440973,-71.88330881879446,8.486309384611028,5.399103687326924
-29.470665123896765,-78.58903350438159,9.765684393861196,0.5051355773491714
-25.678352739978145,-73.38795126211518,9.036268921524561,1.9892175495313833
-10.422946049019181,-43.12842839359366,5.257211881487135,6.792156512235981
7.252889666212711,12.356270969687731,-0.935815401438311,10.18374900833214
18.179927648402092,71.29024618669317,-7.008427455175912,9.029084056954943
18.82359388485165,99.83108022463179,-9.82984642804492,3.6209236807205603
12.026454913054467,75.66042055454012,-7.684415419830618,-2.8903202504094114
3.5187548052966013,7.092781166594467,-1.5991025470995996,-7.004629732318245
-2.0971606452336555,-68.21170429078981,5.003678626410127,-7.460770591457805
-3.3438688598930746,-105.88078222584657,8.292308458212078,-5.766256571901683
-1.622852088806515,-83.64146677418157,6.454323145587608,-4.2837467678520715
0.5142568807416876,-15.3407059033694,0.8116367725523308,-3.905305667134367
1.5045573130664915,60.575012357572376,-5.310300164232945,-3.6393539364681913
1.846944450321753,108.66730346588142,-9.038272349303343,-2.154282624500707
3.219647493696133,117.76948222074485,-9.668934362597874,0.7166244544404627
6.5995076040294185,100.60488038332306,-8.412815682232337,4.015794092941942
11.334919257578148,76.60256701824443,-6.814542072918823,6.854697434491476
15.861063599302094,55.67605440454875,-5.460364695728214,9.416329516621548
18.964882951988205,35.64967873068428,-3.9337628721852997,12.835526433930507
20.41972992341911,11.30964249360455,-1.7284183968360887,17.852126412506227
20.857075459732812,-16.16299826500688,0.8663108041221587,23.099836023087576
21.157686773304814,-38.11156271262729,2.7246549393497723,24.803561204766282
21.54717835367155,-45.194169939749386,2.739434393294827,19.13894751084564
21.018581072750052,-34.65342603127828,0.7932422391225872,5.910089660880419
17.979851352652545,-11.610723421529304,-2.0871196559544916,-10.003816072973173
11.857733915307877,15.245425705041486,-4.517703808786931,-21.530929570664277
3.93582259607533,38.10145189635338,-5.655040876702176,-24.441832699362738
-3.6527036298246665,50.87429608152776,-5.382097042809259,-20.025208878128815
-9.582628473694951,48.26725801763706,-3.8741879157403862,-13.243072750178026
-13.711079558461686,27.054393021079196,-1.2827098089678435,-8.507078951721917
-16.124478468759698,-9.750987406929864,2.0646757160868225,-6.930319697658475
-16.539000587276597,-50.076809592260844,5.317671021588101,-6.910795942013848
-14.891053885220446,-76.42824272641542,7.230251695715966,-6.7460865708499895
-12.086353992057052,-75.99956920720037,6.886221348579715,-6.506586003563256
-9.772779306473256,-50.05457347718683,4.465586692855286,-7.490215342490055
-9.41767720881703,-13.707519219131884,1.3046733914418238,-10.116901451067694
-11.595651808512669,14.978030080443233,-0.9515515322623004,-12.775700880888028
-15.749109610362614,27.29605774057583,-1.4674751813282112,-13.094198008615015
-20.273457308431023,27.030574390545993,-0.6590661736197295,-10.236746005732224
-23.04540305215236,23.316040443138757,0.3819175259919538,-5.509190464639448
-22.39840922182783,21.492279754086624,0.8800405622865779,-0.6571910230928116
-17.943892324890335,19.959932532410267,0.869307748194276,3.7872429490052277
-10.696246392304962,13.70813215712494,0.881128874011375,7.978858094491929
-2.7318849633415305,-0.3854737012122283,1.335322336736887,11.089649867751028
3.2602139253292317,-20.963185636897595,2.2705506399360345,11.18812273268323
4.86458849579751,-42.989639468606214,3.4772658608825546,7.202478136152061
1.4995324136693071,-59.991153391425996,4.644893514807094,0.6550040978003323
-4.424176986578379,-66.20028329137833,5.345048368013654,-4.905381718071488
-8.385893772634256,-58.726025976252856,5.0974969194756925,-6.28116787117307
-6.708820456960214,-39.66862166881816,3.694234232655532,-2.8016787699482975
0.5785282742881388,-16.152716516214387,1.494129179943425,3.158744139728333
9.384432925322722,3.5782339893026704,-0.7189193427582697,7.603955925641685
14.207448492148226,15.825574226601224,-2.262920364118206,7.582614992077827
12.070291591403741,23.25650461785582,-2.9700935707824976,3.4109585380548553
4.928571028580005,29.94260504408959,-3.0873416700185885,-1.4404311984325804
-1.5396811631053888,33.8938489326734,-2.7764355218586956,-3.0115466592813234
-2.271950612429021,25.46450574223759,-1.744221085327319,0.10900954876079454
3.1726130488592212,-4.375540346351161,0.5003248076576776,5.956387177742591
10.625039413049112,-51.87960987196755,3.8400392905646616,11.008298476462224
15.316032318165712,-96.69300525128843,7.006566615862218,12.835224301388829
15.795354703799582,-113.29944928465295,8.153528322073447,11.534744300523128
14.015453537720056,-90.41906710696796,6.338728697581612,9.185767427757227
12.252067421514532,-41.25828337181985,2.527938449921313,7.885945943437463
10.697080699782562,5.956896652581026,-1.0432617898315688,7.824783043345473
8.043077380215014,29.53247325459006,-2.6688818212974637,7.069796388677836
3.7254515144138196,28.78026087443162,-2.406330784143902,3.602812833540467
-0.8655899559738691,19.4446303755659,-1.6204947134494527,-2.0165878119712577
-3.250784829433811,16.418364742815807,-1.4543411279677287,-6.034456559102415
-1.8400216715016204,21.133583919455,-1.819572393182535,-4.049356507157214
2.5897596145956885,24.83453739372199,-1.8341917361867437,5.0108160746257875
7.1123092715615375,22.534673633780457,-1.1501658219024387,16.702719301850028
8.664136814230798,22.014090843440773,-0.7472910841975515,22.854249759385418
6.3867925888973005,37.831600058468425,-2.273375279978626,16.768905046817157
2.18361703708403,76.1877412782201,-6.439285880987558,-1.482354954008871
-1.0498461149441627,126.03068846961158,-11.999229230379521,-23.8815187980851
-1.7043762763670776,165.19649647464198,-16.382165332869874,-39.12557713025897
-0.22629522214296233,175.45120647047818,-17.46366626944615,-40.171420480008635
1.6064641216878532,152.96672313667435,-14.892481943744615,-28.856135604407072
1.6575379577101212,106.96183892593716,-9.92748616018127,-13.976787975873235
-1.6755969302101212,50.717870459508745,-4.244586799411656,-4.684830744464856
-8.249003714529561,-5.500089664512738,1.0083078202242195,-4.545594349454829
-15.346948600866108,-54.64121130912754,5.246049411188846,-10.222856623988468
-18.77846050160099,-89.76532737971691,8.042771014480966,-14.713994335397205
-15.747675856818997,-104.38303833912647,9.058319362898137,-12.312966880635981
-7.047385267802167,-97.42352629587722,8.37207522828577,-2.2203583106099685
3.4461593222716376,-76.69059502398142,6.676128442711662,11.212542825911353
11.293569284241118,-55.06143929173264,4.968804377009215,21.79224782747103
13.832791386282153,-41.78795828832984,3.9886682037367187,26.012783068497917
11.090454096438682,-37.25931215519991,3.8717980198142294,25.09724835233198
5.376734870933318,-36.22892290430111,4.267501167488753,22.870647588285653
-0.006465371314222616,-35.64277572280126,4.764258870448564,21.82748971508273
-2.423208459404589,-38.43812536352853,5.226242465645156,21.31502180399946
-1.0239136738508379,-48.90346391521985,5.6917056776600905,19.052609001029804
3.2579819299991795,-64.39694868667861,5.942267286243545,13.698614587889853
8.314115051745398,-73.20125980894848,5.343948889048833,5.789793815382895
11.350795093262684,-62.90661374322196,3.367017326118322,-3.2528930405634418
9.670671585574889,-32.28692717573116,0.3249564327119824,-12.386936720011768
2.4260904772398018,5.492059894484957,-2.5790140255651486,-20.961744120416505
-7.749943215951104,32.51792912939216,-4.107555495788407,-27.556614471233612
-15.57888331201641,39.74206271484126,-3.9096577596739204,-29.283381598857833
-16.833454142239493,31.74068859150023,-2.5959318672822125,-23.29678103972923
-11.959613232879086,19.084284430317396,-1.0005577081445363,-10.132363424454496
-6.1434463993587825,7.1777560166746275,0.5395585621694153,4.336998983340388
-5.39204421572172,-6.690930261220742,2.1950496915799924,11.596344662215586
-11.591824110804863,-25.63259207212124,4.023843453989777,6.995010455445673
-20.36638529704097,-44.17822453063529,5.43215551843672,-5.43235730311341
-23.74037547111561,-49.23074158307115,5.377409630804692,-15.079908533617111
-16.281492660896568,-31.18973791221766,3.240638614527338,-13.084861744023398
-0.2271357167341557,6.323069092553208,-0.46819878108742274,0.08018237891638944
15.133160844523612,48.50646725535538,-4.3410502959473725,14.655811137107989
20.19842112771333,80.61816722017821,-7.053968591664984,19.570487531814727
12.487707964821038,96.61513428432895,-8.12698963580164,11.517035415082335
-1.7818673716897473,98.06583363017648,-7.811774991747183,-2.649908317398369
-13.089568186546856,87.68722549462758,-6.481937604743049,-12.017849837313808
-15.753198493513661,66.36094005388871,-4.35491872031649,-10.674877053239646
-10.866351787702277,36.332232566385116,-1.7721523835105277,-1.921261566234938
-3.751009042132939,5.083858149309506,0.5264550644217988,5.501554612760189
0.8261114939284823,-16.535696052972057,1.6707535365350639,5.139841253949066
1.712488007191201,-21.527118100713924,1.2853320045431789,-2.5060275507999887
0.9563222226303046,-12.125428251349952,-0.18794382350968927,-11.719688729063991
0.9659362794714891,2.773239729280592,-1.8309614351561443,-16.899882647078638
2.05683922125082,15.913905788435253,-2.9499494015544165,-16.29749498252749
2.6883088539228837,26.852436934703913,-3.4951371168323253,-11.803178637662954
1.8570835371583025,38.19019847467417,-3.8140057716295046,-6.345721501429036
0.6747061286244025,47.12707323231315,-3.961687691179683,-1.576341748751532
1.1982937074800255,42.68526749252341,-3.284641013080203,2.7838971745371723
4.061112882076415,13.94584170509194,-0.8832076248808636,7.947201558561139
7.8597333506601625,-37.02623078244174,3.2741394517669398,14.249853288169437
10.808380253616425,-90.51611980245828,7.68390841505231,20.01172915290237
12.380266264759419,-119.75578678522876,10.025808273204305,22.332914058364228
13.16302316628569,-109.78078621252845,8.880748021590065,19.391425454779956
13.685036112385013,-68.81788068430043,4.925328036840058,12.154957282055891
13.865574009617463,-22.285105714622638,0.4816228254402421,3.944021741434317
13.417854505037099,5.3853230245395345,-2.15448749340454,-1.6074287151962185
12.396105157163165,6.188847342639243,-2.1782822430999538,-2.518005621301556
11.309525482336314,-9.6179817834504,-0.511191341748191,0.6836576711615843
10.778031089893236,-24.192385405224602,1.123924352825148,5.369512617253585
10.920465030168108,-25.58914184054829,1.4839804820508669,8.372615632865045
10.989099204017807,-14.465811226780982,0.5663666486763153,8.0768479785233
9.91041239302719,-0.9115222325654142,-0.6023457966775436,5.595721245713179
7.50882978032463,4.497606020864874,-0.9003751418184416,3.8784753981880105
5.049771338555866,-1.4767971426861302,-0.0057188679595329426,5.344572786622519
4.219899933873456,-12.37287474853911,1.371648638152525,10.020458016466076
5.539037627115616,-15.605157390981397,1.9611895823632073,15.537956955899256
7.911731770997783,-0.47569090055105634,0.7565787157663093,18.66598279098961
9.541605234027186,32.756258841454766,-2.208438240103822,17.15781191473485
8.955036844645695,68.94454809297687,-5.564719364322454,10.92711542545116
5.401301814324646,84.69174885742262,-7.1806550499117145,2.0622151593149787
-0.8463052435467723,63.536798156339195,-5.50403020905796,-6.305746293701161
-7.973488915336189,9.343065272912481,-0.8245432352927924,-11.564546600888352
-12.749880683341884,-53.1296854095162,4.610787246885591,-12.577726182519354
-12.081639794106609,-92.99046637555867,7.950408770048764,-9.719299084826162
-5.236871409639573,-94.16653749643761,7.689611534643648,-4.591877176698433
5.012792584247299,-66.90262349189075,4.741282880434137,0.23058992419407834
13.410253081486031,-39.37933163599143,1.7228523596782013,2.0243423731156147
14.990443628741604,-34.60272899385237,0.9380134771592248,-0.44766411172519804
8.065463773583476,-51.22397121269195,2.6014266739266896,-5.802721113679566
-4.556263133629376,-64.63642435614938,4.697473855269424,-10.991406230068865
-17.29578506614379,-47.53945637494233,4.594293573589221,-13.812818736212105
-25.473012861829506,6.843650435754986,1.17441613483056,-14.568043668125688
-28.007869517662154,76.9253066371756,-4.159644070122773,-15.33740650424931
-27.006512978280693,125.85680216935533,-8.387090396855282,-17.861053190709537
-25.183634260468324,125.96524753718973,-8.9782580447901,-22.008443869830607
-23.96561475313092,77.44328055659278,-5.602215379277152,-25.77201647987885
-23.60001581566933,8.777337395353193,-0.2561880996555697,-26.490569721720398
-23.98742582218601,-40.62221753531889,4.059460768094592,-22.572034841225737
-24.75182395106023,-43.4369291800872,5.066998817141371,-14.73841725581835
-24.918306859255676,1.2528479384411906,2.3317021694877713,-5.77390123714751
-23.311459811253464,69.61177811076402,-2.6658259434968024,1.2345493943691437
-19.556696019886544,128.02212326008043,-7.4430972631728025,4.673378258906128
-14.613822640685209,151.96410157454324,-9.928450766508385,4.668803861346687
-10.384147284767995,137.9680011570421,-9.546919689608458,2.066717960881829
-8.760354246500453,102.17421130937764,-7.288854075908484,-2.3664751022547645
-10.497471071036871,67.35147316539548,-4.7983276248413125,-7.785514676343598
-14.351210442221104,47.48780510493548,-3.216093351765953,-12.869448126137307
-17.41210979648503,40.28657628639724,-2.5630812386625137,-16.03447928570697
-17.058169564853106,32.19086832338332,-1.974693167819471,-16.17793840287542
-13.116049164213134,11.572121420848026,-0.5554784685137282,-13.38469723977717
-7.996271864309241,-20.47034484723634,1.7587598298126212,-9.158317983226283
-4.451246138833816,-50.447428736368664,4.015666040515438,-5.8270953731794854
-3.182071148094101,-63.37473318432452,4.956302692478335,-5.105118044238369
-2.594332474503584,-54.6669488767981,4.0486072405491695,-6.762693641711496
-0.6307754580370977,-33.39776704771637,1.9474529773848943,-8.798293743807186
3.269422043112346,-15.679575064067407,0.047601877043798604,-9.162640889681116
7.738363776674122,-14.70984890364123,-0.3907635551718149,-7.284086723526
10.800503620682885,-34.44868846741762,1.1166100361876257,-3.8797552943417566
11.951969791041476,-69.1628500720648,4.11192429996533,0.3500880814477111
13.27217846939971,-107.14643754625808,7.418727024012115,5.390516259670901
18.158316233203497,-135.99224818499764,9.663670861708777,11.389295198379124
28.298105464792613,-147.248704179459,9.947709394216462,18.02349379839707
41.69187102921089,-138.80717773431726,8.28748269569324,24.705407462838874
53.93089218519513,-114.1979468378908,5.467132717845181,31.245167577678806
61.56096039518986,-79.59946014641575,2.421093474562095,38.048130706693655
64.18955391461756,-41.04238227299466,-0.2814196987974335,45.6107005807639
63.70996041717232,-4.167991347912234,-2.427887847290185,53.79864448955299
62.17598777599908,23.929750000127715,-3.7989314313067735,61.466638691791296
60.551005244266214,34.48414321102771,-3.9766278635922565,66.75733498611895
58.7734375030574,21.627496785672463,-2.6293985810115035,68.0712448222012
56.301497574776384,-10.341099581349804,-0.06106399661972503,65.11023176291741
52.649707402108035,-44.220978731359345,2.5302076847533446,59.12119112515577
47.87106169794561,-57.57347843509551,3.5367117295483745,52.14149036342109
42.64043913050066,-37.94720912130117,2.0468775410900215,45.94281293822059
37.61234880416483,6.172947432488671,-1.2781498278758083,41.25505955106343
32.552620890823974,50.01739731209362,-4.521316901699676,37.20223722420226
26.18955651656,71.3504986599741,-5.9995544379220185,31.154992637708872
17.03780282113304,67.60213582707489,-5.614387110467535,19.940128706533738
4.568068790622692,55.34573233583942,-4.712165098825805,2.51046344434546
-10.05423778923017,52.970324389988626,-4.618297547605396,-18.05698757465452
-24.22882945204251,63.86736860920217,-5.3846327941005185,-35.83939605143789
-35.43650932288125,75.51711429725276,-5.9124889588100356,-46.2979678028694
-43.28555252177622,72.73534223744296,-5.075975303058533,-49.81262799320991
-50.183232826754676,50.65403099046355,-2.6338833799208428,-51.234661366842744
-59.35220924701889,16.606503952802765,0.738632509258696,-55.90910915132331
-71.64141108201399,-17.123696604610696,4.009439168070959,-65.60798995213578
-84.3104763867021,-40.28752006633945,6.299017971576466,-77.41838268205036
-93.09724606979876,-46.04490332073885,7.029604082611709,-86.04768117719776
-95.43688123893249,-30.264372550499253,5.911578372041101,-87.64158882434397
-91.8491947670774,5.450622247103022,3.126181970932007,-82.28449739739489
-84.86568101103384,48.54638492841227,-0.32744217198052705,-73.32660198978638
-77.13790059425575,76.65169995528639,-2.673647942873873,-64.31338453738793
-70.27251710887853,69.56479755237716,-2.2308115970966997,-56.513425971075556
-64.63196659096613,24.791788771343693,1.3013937909371864,-49.255037182413076
-59.6766049555743,-36.684506968644044,6.2377366761839195,-42.03278604466074
-54.45395125159683,-81.10192552706718,9.724539780664793,-35.52543627688542
-47.92439480164998,-83.036696897477,9.551504539181742,-30.507653086514114
-39.06938164977691,-42.50702493906262,5.645048797285191,-26.468483553562507
-27.16359428484205,14.911873804729106,0.09196721726210946,-21.810269306175794
-12.425499520123616,56.65539302037532,-4.3791212078643325,-15.213798003758876
3.600477504225477,67.09334225756331,-6.33163955290602,-6.532392038274211
18.74644553768741,57.21175225786296,-6.455808020672466,3.4005327439630637
31.56804845503819,51.652487494544445,-6.640333311714147,13.428371826646964
41.84671295951172,65.00205378556905,-8.103843370487034,22.578815783882234
49.71299848600728,88.62876378198486,-10.228266884448043,30.265119252476808
54.72003327712354,98.60854913901753,-11.089752717293694,36.16259682440695
56.28576261203188,76.08241716747916,-9.145316235546202,40.00746078926058
55.019001048310194,22.221224110695697,-4.5519354300987995,41.88884964917307
53.18285921384722,-42.958854712634285,0.9391451686797682,42.99809810943747
53.495308433055854,-94.3940330678845,5.218836465176591,45.61849820115116
57.1406214204284,-116.35638932949244,7.04629586055833,51.42094238502433
62.441023530538075,-108.11071613397138,6.462989185735523,59.29575062929892
65.26079481933132,-80.32316896391713,4.451332536930454,65.257303195202
61.46564700981931,-47.556545964364865,2.28949263767367,65.16735275518488
50.282475456566445,-21.5860006433238,0.913233847291,58.00279751657114
35.817983818006724,-7.238299361434578,0.4878029014563911,46.77735052293149
24.687453388823926,-1.5422859030636,0.44131283255684023,36.51846309881083
21.219337292814828,2.785106023872153,0.027224122773761107,31.098626169180484
24.39894770445123,10.503043841273906,-0.9569860215116803,31.145497958595612
29.07762536626718,18.300440759581054,-1.8622999848685646,34.15334380276321
29.822416454169925,15.968835445556355,-1.5626708374489295,36.43904741464012
23.988792551617433,-4.9018497594081465,0.6919651703665924,35.40468686260794
12.452668515125987,-40.96754476511992,4.481120498521576,30.468776215443473
-1.3323855092461112,-75.20241181007106,8.113199611983076,22.402162833803185
-13.05710404716093,-86.81270159469767,9.528607323041966,12.339973282258633
-19.61075814982039,-65.98997046345677,7.695118817351421,1.5695868391174883
-20.59106515283756,-20.74684105650972,3.341103463982743,-8.332874827057271
-18.14951584497896,30.17087632424275,-1.6702369726618358,-16.00661716860543
-15.248133370236198,70.94698606830391,-5.713028149005395,-21.22449512264129
-13.803748349535844,95.98660417244518,-8.205297665502082,-24.987813645112134
-14.023427137416586,106.0066456847043,-9.279059338284844,-28.420484081528667
-14.97785378754522,100.31926389527695,-8.996418027630419,-31.60140256428753
-15.70349024001469,75.63027646210536,-7.119073993950472,-33.50882394363197
-16.080703324267738,33.04402189382118,-3.6424928244264514,-32.94178789932056
-16.832776014461018,-15.266775684666497,0.5881286696535402,-29.49332455670266
-18.527551917393527,-49.160688198794624,3.965748367881955,-24.006298802220744
-20.601981806448638,-53.21542930850052,5.029622559131197,-18.395261751878344
-21.743354338449745,-28.346756786640913,3.5098349177211334,-14.77878821637652
-21.365774245864365,8.486316684172397,0.5899812438189931,-14.217736479069533
-20.250968478398335,36.38417888829613,-1.9141823005354652,-15.991883251879647
-19.337798642451457,43.45197872266858,-2.7743786055142063,-18.149729662142917
-18.226633571439677,30.082303980700857,-1.9070392577571655,-18.862755772872614
-15.488238618159544,2.5658203195205327,0.0842760807612655,-17.399678100848405
-10.435636440451002,-34.01337677916344,2.673636247903153,-14.22429498262821
-4.138119330833821,-75.91733221171502,5.570378711921612,-10.692703574852457
1.337624992031369,-115.41486049275005,8.232401674330282,-8.749434768877029
4.320919851309572,-138.55518203326218,9.573736953349425,-10.375129386577331
4.315141602026128,-131.94050618044943,8.498507140464326,-16.592692550853098
2.1302731582916303,-94.13298012774943,4.872245076096487,-26.551152411396583
-0.4282432955166379,-40.47613888393221,-0.05306600550353817,-37.46444656574364
-1.5696796615558173,5.085583182978129,-4.259612943507834,-45.630920067615754
-0.8919117530856966,25.468576679595007,-6.175090887209682,-48.079028531844116
0.23129995082894753,20.49777673085281,-5.5532961748924805,-44.01747618694844
-0.06072122198880886,3.7425760890059525,-3.4043568695047712,-35.165872468596
-2.383049573574184,-10.170980167484235,-1.0822039371718326,-24.51756154829144
-5.658330199806596,-16.45449283771257,0.7022929352094528,-14.369218956780175
-8.092075649810075,-20.33859745029597,2.0945236782395686,-5.376599281336687
-8.377575765060534,-27.821510285588303,3.427810391461178,2.5879291087490275
-6.349846368022583,-37.104054014200074,4.503339967744465,9.112717930093053
-3.0775029385462203,-39.4818154859466,4.675308156000798,13.28576979009109
-0.2706586523117058,-28.008137838098754,3.583040211146928,14.983148499092998
1.0353124861010914,-4.137084988142771,1.5842540064410708,15.559678483061186
1.5009223097983773,24.16962643797764,-0.5994432191216665,16.905095107826046
2.8445026170217447,49.33103552348001,-2.491902726453084,19.889416223836708
5.892149844049474,67.90306231076612,-3.9836056404055373,23.762563327980214
9.44600356315052,78.445429830459,-4.968134603881391,26.837466389451528
11.309370853067751,78.40596662633693,-5.107636429917048,27.71148874421478
10.356445437428588,65.65976551945619,-4.1123487582546705,26.250009468018305
7.57535011565336,43.820303950087435,-2.266993949742152,23.795746354789426
5.308113629417904,24.466605087186313,-0.5966731457023933,22.279178506469645
5.413145275444074,21.270548132504782,-0.32352836599796336,22.637636389901257
7.553376616193602,39.66169782567777,-1.9303788045129107,23.838440246707925
8.882479133150287,71.8788494902916,-4.670253117945139,23.56150220467919
6.0278095346658205,103.04753597206735,-7.109350233951277,20.16205309844586
-1.520634479417296,122.79310519334922,-8.292687850943347,14.440618501102684
-9.669599809792546,131.13126677124015,-8.390957029935414,9.941845274186674
-12.11119420147922,133.64898922553593,-8.177892711972147,11.349667175058519
-5.442942866856596,132.28292536758076,-7.962842797043211,21.444457790922137
7.511750497721208,122.0278479000775,-7.188804921167902,38.26286916342413
19.27757106976998,96.90256074986544,-5.106790955727223,54.93139707060675
22.807579985750664,58.448119389528614,-1.728317459539882,63.305448216859304
15.940793423401958,17.457723236636447,1.9660999069222695,59.109993954457934
2.2604382997014234,-13.161251277812122,4.705370026514413,44.34400479879302
-11.579778860266153,-27.36739509677234,5.771637933542722,25.190989069748426
-19.806207920590687,-28.427318136020002,5.308462676901193,8.04144080154063
-20.177390696768875,-23.93271132109814,4.037929968259898,-2.769672490856617
-14.089219716862535,-19.991886075885585,2.8043572400758814,-5.047109597858128
-4.956881558215946,-20.26648747270531,2.300627892956254,1.1957852796420336
3.248717884293507,-28.300679670821253,2.9878794561699396,12.693221422726683
6.6078925240237805,-47.58009503284642,4.998434869732828,22.587329658243725
2.2011174788744583,-77.65969404029529,7.920381984073151,22.733106171075246
-9.69518200974487,-111.06167902250807,10.689381134268357,8.186191478896937
-23.827940855153184,-136.24592346994774,11.957269484894653,-18.92413676668603
-31.5231451395114,-145.65454317402921,10.931001463200722,-49.209722269113215
-25.971120668282566,-141.5986834923558,8.05581382753734,-70.63544935977227
-7.665417813928386,-133.87069083371722,4.834646568524317,-75.66936585715705
14.59362815186948,-130.93044199918026,2.825144310247196,-66.04328034751974
28.58632775143376,-133.03723745588115,2.660241106050103,-51.13656809074448
26.450668203315082,-133.59263443997,3.8586408508771624,-40.95036036531739
10.00647247030924,-126.5775085592135,5.381734343238082,-39.388476613335776
-10.363314694708075,-112.53325050902787,6.341902229123084,-43.11443986655655
-22.808011147408067,-98.1588525356399,6.418529926747483,-45.95368267259348
-21.92647108729296,-91.05723865364045,5.901361085158776,-44.250037618759634
-11.494859658824469,-94.38096320901228,5.405936799007472,-38.9150075597995
-0.35144793289447235,-104.35308824984371,5.357823372889719,-33.541485974026735
4.539419496522772,-110.57247651070169,5.51518222218121,-30.819975087584215
2.3185129437382175,-98.36176640003859,4.880778537445855,-29.995673024962954
-2.3778993572314446,-53.96312123596255,2.1631066103020626,-27.133405918932347
-3.1225598028724466,26.740865777154625,-3.3698447915220564,-18.236678223476503
4.219175524538712,129.7616699682264,-11.083220599097618,-3.167051800042709
18.895317943733875,223.11457594283158,-18.817342031264236,12.778991392846866
35.428453677880796,270.400361302291,-23.764539446880267,21.36256442704347
46.85663128452345,251.3402257451288,-24.02895783383658,16.524297675300566
49.19216103506404,174.6553807718517,-19.805894966872692,-1.43807578673304
43.7635220974724,73.40998103732466,-13.255156968488023,-25.49290569282078
35.71649433770473,-13.671822463930697,-7.159962880541348,-45.48269662480743
30.258864110006634,-61.64658243934852,-3.409073868590317,-53.42427675541467
29.626883449843397,-67.42953338042956,-2.3333769336969072,-47.30603407206377
32.37723416051906,-43.87556829139964,-3.1031729805821273,-31.21056800062518
34.80826768355555,-7.003197066977543,-4.624119445041536,-12.080232635232594
33.54284533361463,33.47901098781056,-6.242340035869708,4.25973828680362
27.8288803141144,75.09192530109704,-7.908989599984495,15.135062845426477
19.865853279699678,117.24577802388994,-9.830954158775835,20.613609964541244
12.744430475885544,155.65727259100743,-11.90402467720263,22.152411494922415
7.9260662533705695,181.01648606034755,-13.391533402070374,21.67032539588876
4.72387885409763,182.8226584782734,-13.207766669054443,21.09512032658603
1.9125100659839187,156.18169590540353,-10.684203627798455,21.953161371662386
-0.6920769927023541,107.09289693489153,-6.2028669228094655,25.06485052973549
-2.2808170691201544,51.66746336498645,-1.128868919272901,30.541248269831424
-2.2010258331191923,8.453174869808302,2.9402605350666158,37.84535524424653
-0.9123111189964859,-11.536269211464779,5.074596821834972,45.73973238368305
-0.20733655281017546,-10.341778105840678,5.497737812258152,52.52878428159348
-2.635339705553243,-0.4400895768933379,5.385852014977488,56.90657495157672
-10.109262987764973,4.263442819713399,6.062908875560199,58.80350690562744
-22.395626640424272,-2.086128391292406,8.065737226068787,59.34255966394205
-36.93921169634195,-13.938688703765525,10.77897139490083,59.959056117135376
-50.53969008210455,-19.905179487068644,12.999261644371975,61.54487318853704
-61.45246898760256,-13.47215103018361,14.002582283029483,64.09129913436401
-70.1629913886948,-0.6778176304282019,14.238948307463817,66.61809829816549
-78.72238074467968,1.7520826426234024,15.118529206724773,67.31577536032624
-89.54283713753574,-22.505607855863857,18.052202879329187,64.26236111757747
-103.83067397685954,-76.45749602666577,23.357650547767268,56.740532207871176
-119.60587927568228,-144.50363824877553,29.70465983798458,46.35833209965901
-130.82959158029658,-199.0584616778466,34.528036617315884,36.93819007685413
-129.89444882985552,-214.8362483189959,35.29836665099214,32.735750001804156
-113.03514605098228,-181.98749869233458,30.947731843006654,35.54498085394291
-84.4510022926881,-111.56355749076843,22.584795547760006,42.37560751175285
-54.92164475416379,-31.561533895328434,13.064277376712875,45.984066406803905
-35.17564550093738,25.16040025894445,5.623112809806494,39.1518915623938
-28.843723819907932,37.04639567226228,2.2540595751591086,20.21066341570225
-30.282659523529258,6.129139822790262,2.657664138791694,-4.873598023907586
-28.872372505182476,-42.25391582478275,4.4458476660016055,-26.1857919584722
-16.6333400386331,-74.333282388914,4.6453659804830005,-36.37836352355011
6.467893094376831,-68.88450115753372,1.6433202710311883,-34.58740334446878
33.44501918089199,-30.103005057687074,-3.801895080958434,-25.326899772198473
56.34979105555816,17.375881298397744,-9.339027972269456,-14.735581367945917
72.09573985547185,48.29768022989684,-13.050102376916904,-7.9170663529606
83.29207857334845,56.06787318509376,-15.04504660385025,-8.54668779430293
94.27025832253638,55.21466560422061,-17.20982000149704,-19.117301854563664
106.58669304013412,64.72976950114374,-21.274371325843973,-40.05803661010556
117.73427125877254,87.5205180451824,-26.876141564568755,-68.01103191831872
123.29143893628925,105.19536396953924,-31.362688514253573,-95.41290748087205
120.32023631534851,93.34061041240203,-31.648254826187717,-113.22916812230791
109.7115936498354,43.9424318033229,-26.72359709593949,-116.06167668538191
96.02309987308371,-24.300645786932726,-18.800043137300598,-106.03625273596992
84.6864445421946,-76.39659427762366,-12.077830773193162,-91.96117674669846
78.53467865215623,-83.98644904645307,-10.034737312161866,-83.89973106329737
76.76087926821972,-43.37948213956218,-13.343083156459802,-87.21006445966451
77.37394051773722,23.589616526787264,-19.893556363655303,-100.30827772793522
80.32984901250454,84.04031335951024,-26.517179406417178,-116.95345402884266
87.42372112656831,111.6369334180577,-30.747543370524433,-130.516883028183
98.62352888591737,96.58013853199606,-31.467506650586312,-137.21378837388485
109.01656514299664,46.1814984332922,-28.65735579952325,-136.8160241465154
110.96469130448588,-20.014129770836742,-23.116438498959905,-131.00871856646435
101.65410832554524,-77.50486410249204,-16.548017032130126,-120.80603774773701
90.31950156858234,-105.93251103585973,-11.566087520909127,-105.15595623254754
96.67854205621127,-98.49276863684686,-10.861769026498544,-82.05280994304485
136.56910458916602,-66.66275396588988,-15.365586237589248,-51.17685836985471
202.3625390963101,-34.34111575115473,-22.552619741426412,-15.619124759995527
255.80834575830258,-21.68145554232242,-26.83526712082332,18.639051835433186
246.46829229804632,-29.7499607212026,-22.776742280858084,44.77758370583226
147.69666997017555,-40.995185897409414,-9.083545230366779,57.61089435712287
-17.816297616483006,-38.10963561271941,10.10454756946159,56.16854131844488
-186.96684324353262,-24.354155997114837,28.056940986954125,45.66962572791011
-295.5618756224057,-23.857769923172075,40.049853554598535,36.73387375899274
-317.93255027134813,-58.804396032496896,45.776932467817915,40.236976570453194
-277.6299285478327,-123.52702719490178,47.90587986683937,59.98020937131081
-225.1178763483418,-179.86936410224823,48.73220867928199,88.80924325512669
-203.07961237495738,-180.48970530989268,48.27515574418354,112.4779360059258
-224.59188760020592,-103.49096470897007,45.32493288154971,119.5239638629978
-275.03314855007636,28.646473346279336,39.93594630331758,109.9002882206642
-330.0454871231906,162.27649901841497,34.526609927126735,95.29013081486045
-372.92181405292104,249.43631351227714,32.22499217452937,90.28440382762935
-399.53554962716436,279.81255003568873,33.914357066456645,101.11118742829953
-411.39729377377984,282.3027393398467,36.89015543263525,121.12931897171995
-406.73491952727716,295.3041632693454,36.72508334951566,137.14033551262585
-378.5806882105388,330.21563452852706,31.009277694240147,141.44479872229064
-320.4416515966599,358.11653760682344,21.73544148738339,139.26871749488276
-233.13583456184344,331.6451049213478,14.017681451273726,144.79959886346612
-126.41040394672486,225.78070743897246,11.93783228420166,168.69567255486217
-14.188461089888932,63.12906578906565,14.996116654200922,207.018705156836
92.47155345568474,-101.17505449936007,18.38658199503231,240.19458553118554
188.96941084699887,-223.75813821293016,16.963763605849387,242.8808292417215
274.40287157134674,-302.99027599820977,9.221606076184873,198.3300493237628
345.18747141657815,-361.8829334798841,-2.3994477237226945,108.68538188957412
391.8344627369733,-403.3267592010557,-14.636082285589637,-4.449245017727661
403.56519425891753,-392.84856271232013,-26.148761581818146,-109.40902523296309
377.9347248343568,-294.4221683583163,-37.08428331920295,-178.80760958580248
326.85443032448956,-121.18973219481695,-46.78092465278786,-201.07475975269355
272.6778094515268,56.982716390777455,-52.940634908413145,-183.10314281345094
236.41003976424503,160.57140978989858,-53.3666243513552,-143.38660033449614
226.4763552541607,157.64123486954756,-48.1896239655936,-100.80273330132862
235.4092801214645,81.06887036230334,-40.09554848818788,-66.15715948643137
245.39901603390948,-3.399402471417411,-32.304385410721615,-40.60293327870173
237.97193578579024,-46.04614077751692,-26.20224788262298,-19.84356124123617
201.97186482904152,-39.87381802926311,-20.659004831028863,0.2809131196060804
136.81591840126535,-11.017601821557843,-13.44655999370501,20.717221370218923
51.45599318936739,10.806578869024829,-3.4301961745194185,39.568915384068376
-39.00040836779941,14.657232870283854,8.247868671708975,54.27177683303586
-117.65964383193612,9.23352666457772,18.777656621705674,63.42288796823187
-170.7368366015476,8.604854085251704,25.434462291300466,67.25235611175914
-192.0391664347234,18.85850903675576,27.114726753483055,67.01505362723368
-184.93663404277152,35.69894164065687,24.673940556528446,64.02557918842814
-160.09718669986114,50.97554777114246,20.06634841675891,58.81743896080104
-129.8527330470847,59.736891899106624,15.077347595076075,50.667483243813976
-102.61544313209144,62.02184447366842,10.537856110789024,37.77621377339809
-80.65112884001864,60.08603173699782,6.377465133683507,18.349944252125933
-61.81760555158948,55.39621563198806,2.2131446813086972,-7.764757753747795
-43.120888844057454,48.228385267320604,-2.1151199203673565,-38.13506839213607
-23.31315008820327,39.03840068295076,-6.448000714035911,-68.88929578133413
-3.2312461267552886,29.149419555489338,-10.610220262614412,-97.9776817565583
15.48899347229834,19.825596212096055,-14.759596097451704,-128.22991761052148
31.806417355695697,11.064420273346137,-19.40178954586488,-166.74627656013928
45.72441217341921,1.7760098110393805,-24.95689369483855,-219.2430645613404
57.79349664217103,-8.689648789912964,-31.180072611954017,-282.80447366025567
68.36492947092893,-19.416271906070637,-37.01448724934093,-344.20706348671
77.26087559676981,-28.79505192255027,-41.269959568305204,-388.80629632319346
84.00740331653624,-36.999840661951794,-43.82705472247192,-416.04138602680484
88.28380115153244,-47.609914401612016,-46.32302245313662,-448.0366933852085
90.13041166115434,-65.90098334467113,-51.25246679033124,-517.6372562372543
89.73598078577427,-93.8999442779273,-59.517783995973616,-636.5984255704738
87.03047135554202,-125.69701048496053,-68.09247773301841,-765.5402514291798
81.51328977192193,-147.65436648907627,-70.1512894302137,-815.8330089954317
72.57236238469669,-145.2272120094673,-58.639024800732905,-695.5859903445428
60.09650643525982,-112.71697408208695,-31.38899486676722,-375.3721446523881
44.80434872721377,-58.85420079128803,6.057002906041966,75.36218096731896
27.795010322610555,-3.277978023253269,42.64094422431235,515.6091968978153
9.45827086819993,34.315215283762434,67.91747492729843,810.2818711843817
-11.354165892639735,44.82702423707746,77.78583785464586,903.3864187883163
-36.841856447305624,32.891271807827614,75.77906820444063,836.0388143855007
-68.31512012332811,11.059416659560267,69.4678840727849,703.2324461265729
-104.19762083865626,-9.849191878449675,65.19059397862355,588.3406795795881
-140.17576108963252,-26.943593147289654,64.99108574588921,522.7864049923123
-172.5142087439395,-43.9122354306842,67.25030222884554,489.96112240174347
-202.60766031084208,-63.74895061642389,69.47885043789154,457.21127312709496
-238.37580385123982,-81.43519552873742,70.53837189810163,405.6228356715467
-289.0191592935156,-82.72761391432165,70.69320544111054,338.68441827617073
-354.6663749049168,-51.41009518780529,70.03183500401308,271.7643050621276
-418.28675399151547,18.404821033188398,67.13574771317847,216.83305702131918
-448.3178751923878,112.9473169127041,59.46870573346393,174.99055185513993
-413.90275566840165,200.6539188028672,45.28546387293173,139.3723973659439
-304.4648320396387,247.3142054748213,25.414586939266037,102.7613802634478
-140.30965765697437,236.38202681454513,3.366702153345,62.886214017337245
33.74813332342831,179.84329009194653,-16.27887798607407,22.446603234417108
168.26018018610876,110.1220534372353,-29.887425005735093,-14.375749985175224
230.9615636945609,58.33625946670655,-35.917174653069814,-45.29093123796905
219.46939200309325,35.95339504675135,-35.04388191348657,-70.82398898078179
160.02646625336462,34.01799387144158,-29.829333154011113,-92.93977051124365
93.943768724941,38.72625837750618,-24.184075991985218,-113.088360485216
57.91826260272908,47.869290058559635,-22.265700939022924,-131.26476208688575
67.03948437873929,72.16901836725584,-26.6205826916783,-146.48719756833592
108.9033373275789,119.9734319882477,-36.376889265415166,-157.96537790201668
152.26687969696764,180.92982732827247,-47.03997384839479,-165.88974746154068
165.82360893226942,226.94810496187733,-52.772077119359565,-171.27434893412547
136.84188956124754,231.9607848356788,-50.089477287554246,-175.13281761076655
79.27907905116864,192.18441510285683,-40.36702104808548,-177.7712527945946
26.46294647168721,127.90964278641383,-29.113665433071912,-178.76136272954676
11.915075831975496,66.91222421354973,-22.438784852879238,-177.48436328459616
49.41525150527053,26.092216675625544,-23.288835716280545,-173.68266724246402
124.89513679169669,5.271887181049716,-30.00938059012943,-167.59303721843133
205.41508944932835,-7.0991094178977505,-37.836088683739064,-159.69702460362925
258.65776846350104,-24.928707154191173,-41.88537849377763,-150.41387437903504
269.52805352122033,-58.31715772727288,-39.59433431137379,-139.98858719792986
244.01592629274788,-110.80495705553015,-31.40276348916052,-128.5749705864278
200.5378389509204,-178.56980205797515,-19.80370608440599,-116.33967158792488
156.93413183426225,-251.49017074258754,-7.721367742652638,-103.4376998226667
121.98633612868922,-317.0896834981953,2.8156295930654682,-89.87890559367753
95.04093361705063,-366.49170122477284,11.198095641041945,-75.45393151733451
71.1852245033545,-398.1548593878254,17.90949703416037,-59.872122056872406
46.761685328485804,-415.4235416193147,23.651955771569455,-43.08115179737356
21.606911004885834,-419.70076784927045,28.51672906304072,-25.52652327943858
-2.137643132692118,-406.4667121101385,31.81791994121839,-8.044881971106895
