TP9,AF7,AF8,TP10
1.842307101060627,-9.23342322971086,1.9116247708673753,-2.0839395577456914
-23.257740863667014,-11.969018743339351,1.587335699907685,22.126969002082163
-39.85789142010572,-0.3715249919236744,-1.4642147478406364,36.866001001614
-43.97311327553575,26.708792606992436,-7.246838928448851,39.28550116310237
-37.487872676367246,55.20519002552505,-12.683093015302779,34.38537304858015
-25.86094780694465,66.67212693732179,-13.976465320632292,30.117842933377528
-14.529991565066359,53.165403124100365,-9.7715717478603,30.985615743248346
-6.6268153683591455,23.50744882141421,-2.375669109562167,35.51167238330443
-2.78630714560906,-4.0670752900866995,3.9865584157282465,38.77102720249964
-2.180902101054777,-15.845087701259361,6.266664382733405,36.71936943965616
-3.66810898722199,-11.178185889562164,4.414502679596475,28.713839700290112
-6.405534332709952,0.3498334965380078,0.7171130657632004,17.39258098490994
-9.705924468609531,8.888220524578763,-2.3598148544532855,6.981706642289514
-12.475807305115929,11.74389531708471,-3.8190263954161856,0.9902737991666075
-13.1762223676109,11.977322871122341,-4.02872589566848,0.14039402509466462
-10.847276275099482,11.128503444835815,-3.4135162640465175,1.8942402842919863
-6.298554161609522,5.477192481024515,-1.671395568172746,2.3264729797234325
-1.9168663572541673,-8.806909567926818,1.4661094412152715,-0.973476445843651
0.08347153352869983,-27.50569164177877,4.931607191000039,-7.346222149331988
-0.6560815266228147,-38.03555224186445,6.3946275856015085,-13.820436069507986
-2.5282236296850686,-29.268285815642173,4.086013911740495,-17.14047211098347
-3.2430602836550113,-1.770277673011906,-1.447736511838205,-15.625529783254017
-1.3328105971984066,31.79370708858557,-7.532665468209682,-10.126160168491115
2.9247744999205136,55.55416797726149,-11.253832260587714,-3.6688193059036727
7.52338365364711,59.86547184658557,-11.206307972820817,0.3306731165868735
9.946056012438518,44.844144434922,-7.864322811994397,0.28745788221032853
9.115569000711364,18.33037108799598,-2.853197519096191,-2.711595385580809
6.449289508726248,-8.583181767737084,1.9749098330386814,-6.152968941034989
4.673472311150012,-26.289442369339028,5.17735157916641,-8.099108276393034
5.236493630459037,-30.24339264647727,6.040023035422077,-8.19787381439129
6.827397772846549,-21.95406935274989,4.624801147524637,-7.3837140922983675
6.48006871915596,-7.06639580145177,1.5910275849462634,-7.035241930542512
2.1958145424560547,7.926029521959848,-2.06983048749314,-8.070000763312086
-5.195861281291875,18.113814286163322,-5.230153922242063,-10.161499051653587
-12.271660980209026,20.63744571998614,-6.744705877397728,-11.687723118275803
-15.078610204306981,13.933557962525967,-5.653405793901432,-10.87922409356217
-11.735007746515976,-2.295341204586552,-1.6308568516279016,-7.3468809434966245
-3.8754227993231596,-25.149420342493404,4.409509670083777,-2.4746869663316793
4.288569190837745,-46.11045099526403,10.036335692124144,1.6626741622145718
8.832417420666294,-52.01213912639634,11.972366331845892,3.685871008594679
8.688220228264917,-31.924423658955984,7.861947744517659,3.528995695004741
5.909275232522761,13.187370285027033,-1.7498592201046004,2.279989109783674
3.7845514352023817,66.26817461774252,-12.854858646519963,1.528551472091945
4.616720304850446,101.65122305943844,-19.869530505571387,2.2804759068386242
8.567578319556292,100.88323475142072,-19.075692543257638,4.0002087242153115
13.744374214558132,65.14512560237085,-11.105239867795719,4.9057924954660885
17.267518964339676,14.409931833977094,-0.48865260920059517,3.630967733217871
17.002957064365788,-25.540765923785028,7.317559987030641,0.6065090819593989
13.035933007402367,-37.997324825199506,9.092512182878467,-2.3796967761968246
7.622020010053828,-22.616760162167264,5.17576478087108,-3.847333943148916
3.4774116363464938,6.929513731767201,-1.3117607061365604,-3.649477074566568
1.902557673977581,31.282807956560056,-6.357010981364456,-2.6323446880594163
2.2886348206305445,34.97341108462564,-6.981013955395083,-1.7665682771130948
3.0128852574958804,13.375223781572553,-2.488985144264047,-1.564657705962519
2.6422984443495996,-25.763698055397565,5.388453127698725,-1.8317123582877428
0.7194563384578898,-66.80506209030658,13.492213889874064,-1.7703149078530829
-1.9786927555981029,-94.41082300038947,18.871501720878836,-0.6212774580893653
-3.855787573655922,-101.50948440172415,20.283669994476924,1.5950260882250409
-3.6474694723375594,-92.92078475743413,18.79201221866959,4.106106607413057
-1.5935448906523029,-81.47868174092646,16.90300177688614,6.1361447826958795
0.4794213413254621,-77.59200258542519,16.47045086450261,7.281044042726265
0.37345935469508323,-79.9696038876256,16.923829282831328,7.0991050921779
-2.9243049663179934,-77.06839609021276,15.743057384322496,5.007520873532042
-8.344732232817128,-59.64975851211247,11.211266538181812,1.32029911905881
-12.847765546454367,-32.384233570069,4.852138352489251,-1.7033048098320887
-12.661073087330557,-11.751294048229092,0.7792310527024131,-0.6664696344724681
-5.5849948330813985,-11.124722725259291,2.1458445704124496,6.3042111824230895
6.752350386837957,-27.31962240315953,7.928371122307372,17.236896204088428
18.7762913120977,-41.65647013608684,13.144625581539554,26.500446212969944
23.975425955566642,-34.70734855281221,12.485650738392001,27.79493999870686
19.209818411872735,-1.6930383002354672,4.343049941990643,18.302460836558655
6.91776631734337,44.00934357172761,-7.9780189762171805,1.2477665208054445
-6.576342706848095,80.68212269292931,-18.584793778472157,-15.499680388482803
-15.26934394529946,92.297317045223,-22.81929099618946,-24.516664374761543
-17.055626763330057,76.42473379237904,-19.754542751116325,-23.850508182098736
-14.305326471038446,42.76261697532649,-12.024977284512127,-17.6623780639644
-11.350384125192532,6.544932858029934,-3.8082312906461477,-12.10217003692057
-10.975734720170822,-17.437520810554044,1.250288794713562,-10.515016784602505
-12.729955083231847,-18.54487738097717,1.117817981386643,-12.09888180917791
-14.276842482677003,6.381705135228328,-4.312962321529485,-14.099875518916514
-14.142923830860077,49.84381371904211,-13.166131940498028,-14.59731314175144
-12.950075980471343,94.53333423340771,-22.009305938368517,-13.656698467625073
-12.117813789831564,121.45965062089853,-27.298565316811864,-12.812482132502998
-11.889843286746734,121.7950419927231,-27.41661519864389,-13.674015082141187
-10.97615566668101,103.23809900557643,-23.781659522561558,-16.381373275721813
-7.918008233665977,84.52471355654157,-19.84254171662426,-18.973050998845576
-2.4733178956817556,81.13685522940044,-18.454275462535627,-18.582065699677877
4.213140058249311,92.81444337799554,-19.569386884420886,-13.718936718474781
10.419530699161438,102.96138709862734,-20.124465719743547,-5.4462765201627565
14.810359757091579,91.50739319727181,-16.435976645261093,3.7062981163206032
16.989464796904574,51.77722067461857,-7.376800050685305,11.747280099051133
17.344420205843104,-2.649599048895385,4.288509699048394,18.07103638573374
16.26804084852465,-47.396570243353025,13.667780129690154,22.780359024102196
13.56153629729163,-64.97302614397978,17.174555600415594,25.75517342791367
8.911196169071186,-55.678252035965706,14.788073040884328,26.516980014753145
3.087112853485735,-34.35896254340391,9.594547313688901,24.818255678658396
-1.6794866546545508,-18.70025878047384,5.51507782179095,21.298416121721175
-3.0056123185209884,-19.33629146371409,5.141360610620989,17.523685905684278
-0.3131976564540856,-36.54047454660136,8.738305179967968,15.030926600741578
4.384287934147681,-62.12872987846304,14.405952575027657,13.905391687962931
7.589444066311711,-84.27643962890586,19.15528841930445,12.365182462232756
6.56116645918201,-93.7161523842925,20.574002375785987,8.242030021973651
1.2800791596604002,-88.63270986438003,18.259018568895033,1.1798349767878547
-5.17583898033134,-74.9144970201243,13.975671119494102,-6.675679151771211
-8.439661144593579,-61.17389821825158,10.29056612562081,-12.173959712821244
-5.907444943968257,-52.062058582572746,8.647144042807305,-13.31078391344076
1.3018439093934489,-44.89411779058609,8.343378489169401,-10.309886386460908
9.243120859928522,-32.36607955669521,7.218182259626059,-5.343634836073703
14.120189043235191,-9.909358544179568,3.6087793854824533,-1.4180100619386908
14.686832133527847,17.451155762685453,-1.8220759695518072,-0.8062310932147532
12.308813295826406,34.568450468002716,-5.84667540995044,-3.6699127769863495
9.296619922753502,24.338809096188687,-4.530774884139839,-8.024076861564195
7.235464249734415,-19.343945127581534,3.7822132110302737,-11.397669544726272
6.315526365519279,-82.8422647032609,16.44454692166146,-12.705296720587269
5.651837053568106,-136.42568383376027,27.262048958419317,-12.495778638628364
4.177646024513968,-150.3983143815758,29.992750935209045,-11.679018238278234
1.4964729220123543,-113.65102368764268,22.312595003143667,-10.476632863868213
-1.950857350454799,-41.30981075192323,7.374316530824466,-8.582063384619941
-5.424158115746061,34.445390270666024,-8.18435278293137,-5.846295309947422
-8.360375271802601,83.93941728161509,-18.29987987128465,-2.607441713989376
-10.252161311182233,96.15805785086037,-20.744224021789893,0.35628732364073507
-10.43926373222803,81.01322493132176,-17.53639111047638,2.080040979596851
-8.55380933054677,58.147131049570596,-12.673367796139711,1.9687022997063996
-5.275647652452886,42.29580584664992,-9.202563199328452,0.32858220217676126
-2.2930306839630665,35.88068854720167,-7.7341848603137855,-1.869479460426832
-1.193430047257087,31.90396991083418,-6.971283527333751,-3.8501117594558076
-2.291775277531982,22.423762447589272,-5.310555118841914,-5.289498542863623
-4.409870758250522,5.9813816659153645,-2.2544903309944617,-5.55182107816748
-5.6212946902900836,-10.176022389799229,1.0815575517599736,-3.29934863403796
-4.404669100231749,-14.226920466228739,2.5606377138061176,2.3257980303843038
-0.6980192925043476,1.9340101473453977,0.43273551664977294,10.084798951034683
3.7438784004851686,35.96163222762907,-5.328088475478177,16.7911632613339
6.276417907575003,75.2628855923909,-12.756474973841666,19.471472566539703
5.22035038781642,103.69874204559378,-18.84197583584884,17.44669687139168
1.106650287817732,109.17253409753535,-20.90247458198119,12.50119009848174
-3.889566710343267,87.76602753947648,-17.630396329947335,7.362608979819452
-7.687751175850362,44.42002704803052,-9.60400330446106,3.922159549299804
-9.454849086583973,-8.787299368973654,0.8414767120727317,2.3501664946306318
-9.342039828794677,-56.938983077181575,10.560819422187159,1.5614479997447563
-7.578024759647858,-88.11255864949545,17.02360087663096,0.6509019881508746
-4.066034284794479,-97.22646399475998,19.2375221221621,-0.0753018141747826
1.1839997240433198,-85.56886634149674,17.539523225756035,0.23111650162701028
7.273911665496062,-57.926555875537495,12.763278352246655,1.2542290189281886
12.122013548097456,-20.864887466845545,5.820063870157048,1.139398334181187
13.35753147326581,17.130086158242946,-1.986650408909467,-1.552467800045687
10.138422572372706,46.05815638751183,-8.636794740130783,-5.797357782430584
4.254086918535524,57.38826716337443,-11.926785207674527,-8.795287619337397
-1.0352135038928834,48.57454582146397,-10.788555448622901,-8.853075045711519
-3.691689189350193,25.590374890179092,-6.280101803138122,-7.012480459112869
-4.426802323616145,0.5395901835438837,-1.1555663698485845,-5.59519590905385
-5.482423105892453,-15.00901907415419,1.8608814718363655,-5.723839929625018
-8.112071929272991,-16.532899428024628,1.7573603541541227,-6.7394598300334145
-11.374268630585892,-8.123067621050144,-0.42609968265768666,-7.596905892829638
-13.064400351718445,1.8950066214901464,-2.7126574922377604,-8.106521179933868
-11.533523483749141,7.638989823082345,-3.760531986175982,-8.866285237649103
-6.94220796918075,9.418821231899571,-3.7187805494466253,-10.612752160107313
-1.346895095123904,11.85728434618516,-3.81806939498926,-13.798287396143031
2.4665767731122212,18.23285891190807,-5.046642287575552,-18.226649747752447
2.960854729148398,26.008768199410486,-6.957051994505165,-22.56711157370281
1.2434191368625156,27.541976467599667,-7.638803575173958,-24.3462099073606
0.38640656543356877,15.558283871976325,-5.011615280579236,-21.038570840952563
2.9161475559747383,-10.881943644249583,1.4916624168447317,-11.893754159109529
8.662538272468447,-44.253202164048666,10.113198224734935,0.7730973418614319
14.87931549374429,-71.60454402387614,17.45104274625342,12.123732982610283
18.33467788837895,-80.92488578582714,20.244904926920256,17.432155323189598
17.505828835809428,-67.18580871894005,17.161368613751517,15.29834925869064
13.391478488078535,-34.53316167311781,9.443508307533623,8.815248936977238
8.682440850190641,6.3190898607153185,0.07885104367400114,3.336603925414247
5.9125158426257975,42.81327432492641,-7.739875253706725,2.5554371191661542
5.767676841268736,63.8529591745049,-11.698039928962727,6.225928038301342
6.854511006653077,61.35469341060882,-10.617059952581847,11.109157344028384
7.215738697235723,32.6069204818342,-4.497791016428634,13.746458171839572
6.183226883290374,-15.913344092579173,5.137659665712563,12.749272603223304
4.731629822388328,-67.0710998879501,15.055090599973385,9.511320170273441
4.125721783317394,-98.4664031065168,21.156733554634926,7.308831990448483
4.4408271380365605,-94.21606198511707,20.48945292594417,9.049905967253974
4.411699234867282,-56.27272458863132,13.297123657617316,14.75624481759149
2.561105218851674,-6.106959255730339,3.4419504508979246,20.92006923944362
-1.414311377173516,27.77714130859353,-3.7385930724062337,22.968072351919673
-5.965046936899828,30.304419352030354,-5.16026490706722,19.062928561668382
-8.333451705330175,12.486057947171211,-2.4954802569271006,11.71238827070903
-6.5238400473823095,3.1422486127469913,-0.9310840602869351,5.579315435493054
-1.355894701004937,23.88342114379627,-4.69913003313845,3.4973468851419143
3.4280400581252906,68.67696457717618,-13.147957416932279,4.181120841821049
3.7126031975443903,107.19684213084552,-21.00139641399986,3.4384125002618946
-1.7519588136844362,109.58146661898168,-22.65774117093113,-2.1500820541784926
-10.388709094514319,70.56661078083634,-16.678344964694897,-11.975181330065384
-17.9587179969939,12.678171852069186,-6.694577498408746,-21.335767074481275
-21.74159249118773,-31.98494064269294,1.5802284918963607,-25.007499490060255
-21.95857150259524,-44.230067812345006,4.347527540998548,-21.60189131154979
-20.596573948820144,-27.06707895177317,1.6515330150728045,-14.709169878343344
-19.059160660985373,1.8464192714234406,-3.5764886320846387,-9.672589271478323
-16.777015479522312,24.925284903709475,-7.935799500560585,-9.142322350390149
-11.923521706571321,34.22088295337068,-9.446591869557736,-11.537249017310304
-3.5987697260250027,30.68721852633187,-7.866909726671947,-13.250255109232356
6.512847134378328,17.42333575451047,-3.8192480969110454,-11.928227329395561
14.734973145701531,-4.603996650873745,2.0120071381353153,-8.003212392458035
17.952198545275028,-34.05935481250825,8.759539220779438,-3.8628980544628697
15.882658412740351,-64.38813919683139,14.85398833967149,-1.767172990051912
11.077228274832047,-84.60348399111305,18.34489691863721,-2.0622627773991358
6.8722766334139385,-86.92681418749876,18.215850441838764,-3.027156465244558
5.22976981375578,-73.20774664240417,15.267604534984917,-2.6071282576224215
5.992697831092688,-52.49658400634373,11.350188350933474,-0.4519997339579404
7.573840975323338,-32.35103685792451,7.668563393370686,1.9356873034171336
8.212937859435522,-13.635999901738224,4.055572501084256,3.1412917828839895
6.975487338653571,5.841606571726854,-0.007594600513372221,3.614718113026616
4.016803704364238,23.681669873859715,-3.8355943080100006,5.338733663226452
0.13106560713161694,30.570271433549358,-5.286986438941244,10.011159898237102
-3.828117532153589,17.364017291530462,-2.3980131946475676,17.66521195833093
-7.072734366212238,-14.268611339665435,4.420998915038785,26.44254643785958
-8.74117070548288,-48.77156320375146,11.812077447607031,32.96897612172552
-8.135602897344352,-66.51870730693389,15.512597612242928,33.22525972869208
-5.281744233326857,-58.89928696441059,13.514455492074791,24.369591847272076
-0.995794085722945,-34.47007944993577,7.503717731037409,6.937808146206163
3.773818623090833,-10.322128061948957,1.2538113308970316,-14.429139760021537
8.427926120441922,2.5361318909349473,-2.454182634557944,-32.87539172546055
12.36587010247552,6.229853632342841,-3.618650719886632,-42.792260752730584
14.566873631256044,10.876524696798484,-4.269993107725068,-42.53461888288212
14.173581594687995,23.83703966226583,-6.243168925594171,-34.71218198295366
11.63011476202949,42.8658673519155,-9.447425414926274,-23.96970161755844
8.802397082657103,57.759476065643284,-11.892012011687205,-13.728079161277588
7.576040985255711,58.40202598993791,-11.320283702607405,-4.293198197744541
8.281589081279591,42.896276971827305,-7.159781785100574,5.96129006805846
9.475625348697372,19.733593901141674,-1.2850166408184793,17.32226038262203
9.122768126331472,2.5774629140775125,3.0117004355787222,26.806077797670387
6.0764363582820256,1.7233164119444981,3.1031229889923946,30.018751293765238
0.8532541645803552,18.232208281015257,-1.3193336542254812,25.229947081124873
-4.716354883600451,44.17587387881749,-8.146832082926716,15.490294889539804
-8.791277796459777,68.02249805902159,-14.291046077179136,6.580276899756349
-10.870522583302902,81.13223173074772,-17.554298499638037,2.732683180453892
-11.972706858247442,81.43331037997206,-17.651065841927167,3.828983521192133
-13.41957129511049,72.98204578545706,-15.917119333575561,5.985376990251676
-15.514629111642599,62.539049076235216,-14.171474572439012,4.669811511558531
-17.465881436793097,54.985745944913994,-13.478833253545009,-2.003757228560464
-18.32216707302364,49.75317160518026,-13.428739392658315,-12.055923945278408
-17.650890741999852,41.09686757515908,-12.423827583366776,-21.298998777472885
-15.463035864118087,23.493147893828205,-9.047096851807355,-26.446196524312892
-12.003676012520625,-1.3936415702234828,-3.6248973372470497,-27.037759007090262
-7.79486320566074,-23.065228917102484,1.4863905292948107,-24.856870286165535
-3.52671861559082,-29.195817570154023,3.5114433607368607,-21.98958077637037
0.36825862424899286,-16.410587626066075,1.6203594819132179,-19.452942119974356
3.8374858775102587,4.443834118648083,-1.9669626389666586,-16.9811030577001
6.679964775506358,13.81567270162958,-3.2076072383737855,-13.492721299467272
8.095130614490714,-3.420065964952498,0.9549725544976936,-8.064925703211745
7.132401073569863,-46.33280419735529,10.162897639557132,-1.2826055400734757
3.7233485368259696,-96.49717305902409,20.42826902603243,4.213927088325345
-0.7184995487044255,-128.71877467517987,26.528336811260676,5.324988501319188
-3.598371967600475,-126.95092403825085,25.47126000326253,1.4896029000475712
-2.1586461273919393,-94.19475021622291,18.521426146506872,-3.7687142670431957
4.980540139526394,-49.621333558470866,10.251335015985935,-4.7865387991357995
16.224157843542827,-15.457203545743763,5.294157504633933,1.9255256054096255
26.69456336466312,-2.961393974063133,5.158562339542168,14.356862599914614
30.45140566342066,-7.14427755177522,7.469272996608313,25.45845233884341
24.360153470783306,-13.890462192460742,8.288418813529683,27.600734354527027
10.610072812812787,-13.731832312708452,5.734774247743282,18.2784603943175
-4.4346760718241,-10.335552033284886,1.8052424706011538,2.750803642374005
-14.25275779715066,-15.793689207630091,0.644859434488996,-9.090543624093403
-15.959132887371007,-37.1014975023276,4.703118617953301,-9.751322316337273
-11.349701373891051,-66.87441096144495,12.244986916647253,0.588115197009868
-4.975940353247409,-87.22700793098005,18.451683266166707,14.936567151956666
-0.9200023508776788,-83.20365011427731,19.067053029191282,25.310943351600002
-0.4903864302591768,-53.775829532605414,13.398432027070688,28.1233362541572
-2.2434934275451854,-11.451488461000924,4.3134650271002055,25.05337304490016
-3.8867838916487987,27.900044661927463,-4.330213626921559,20.037408510807392
-4.070181755351921,55.22527608697547,-10.27132015107842,15.93398518569871
-2.5479785722642303,69.94842506790903,-13.299679640725994,13.44356506742928
0.6761247190054747,73.66828520553996,-13.776854048103964,12.162078845444912
5.525875504479505,64.32642637657406,-11.300408441158856,12.020899815498879
11.049007309395494,38.09433506552204,-5.1612517803216305,13.552306072647015
15.092315347310564,-2.7601020618256316,3.918965720853394,16.776723422468745
15.445793886038366,-45.0960571632472,12.850587793141743,20.015733041785033
11.50307850194173,-69.99830240089943,17.447701045960855,20.26533143904487
4.826358189248091,-64.68930439976782,15.100814472792408,15.244876878166092
-1.7581111740606186,-31.021400327641,6.56149423674732,5.289134423280875
-5.677555526189411,16.578796078486512,-4.6692577511720375,-6.750038100519743
-5.824874837662629,60.875163900206005,-14.638410004998509,-17.34949288076548
-2.937876870875566,90.27195413967318,-20.863508127238838,-24.093330125145386
1.0597087683031234,100.30968956996904,-22.60746336652136,-26.24382057456058
4.310452750812617,90.47032677077149,-20.05292164181253,-24.475807461250554
5.806461804950428,62.14397055353075,-13.751463025431844,-20.408448568704596
5.189259577974017,20.36023937254737,-4.9379329666902105,-15.922481867758282
2.363481510416871,-23.59661753597135,3.969992071239122,-12.289823312614432
-2.1738008820486887,-53.74357511657236,9.765609885291447,-9.756365355406082
-6.835318140328538,-56.87943975541578,9.989022843707868,-8.027518973837108
-9.546560627049153,-31.351913948407226,4.555991152777657,-7.127225115081301
-9.321512803644747,10.781118559192407,-4.0277501409149785,-7.752685941849004
-7.117498779927396,51.36716718163924,-12.282233065544052,-10.887257778238904
-4.933251877145553,77.5369845914324,-17.87888113484439,-16.97680834884318
-4.124074155855276,87.0890219903706,-20.444752720719677,-25.008191345172257
-4.562017305097802,84.4225939131434,-20.594288381037877,-32.06706136650149
-5.070857803322046,72.93646054714331,-18.524084378177413,-34.27962593158008
-4.434098459394958,52.240819870786055,-13.78954637472844,-29.24451780947909
-2.2598556426476204,22.419028465170435,-6.478832217538665,-18.280663763297664
0.7196370072970109,-10.131877173663455,1.5796517950734723,-6.261656574863089
3.1866596904534097,-32.76327591589334,7.157026202485432,1.278644702462944
4.289879949345773,-34.5670578129942,7.685580137826311,1.5837314560439133
4.134435868076592,-15.979046368122539,3.3943206379470596,-3.932552590737333
3.110375072877442,9.60258578967603,-2.571711177639984,-11.095229864246697
1.0243064551268781,25.488500725507862,-6.485727647340358,-15.89795239738091
-2.554594673272662,24.99475699271821,-6.9103100559391555,-16.86869159820703
-6.969215564547483,15.974320541482246,-5.475791420458398,-15.293386476021249
-9.96901392327988,11.495234433481999,-4.7490378415852,-13.258596146374728
-9.034338170063815,14.878341731684916,-5.148382652520144,-11.338466285225529
-3.4251266825169924,13.92852690833534,-3.9901916434426643,-8.236024421203666
4.887212110992515,-8.339239525141474,2.043786144914081,-2.7287229810976386
12.09118207689487,-55.10645172590849,13.057086213775055,4.332355939973978
14.602113173359475,-107.02924405076472,24.445707887760623,10.305900494180968
11.239615765796968,-133.3270898636409,29.615921823428785,12.979133547377078
4.239865528722966,-114.5486993016715,24.883710259535665,12.266175215224386
-1.974195781728084,-58.082317657520775,12.442473422547154,9.861394597035739
-3.864141218187536,6.038036556407228,-1.004298363632856,7.6818125497699
-1.3219384410907207,45.01239423696615,-8.693243515680782,6.728649180754399
2.616483217519064,43.575703025700754,-7.8997786234509775,6.957526089368626
4.526272771922629,11.125686056923234,-1.0044334268556099,7.769924279275148
3.0990737741871204,-27.340407548759952,6.710485403147291,8.645256168822641
-0.6373327422730848,-48.81837716012705,10.69425907379239,9.523064007495051
-4.848377123095695,-46.38854782844384,9.785600533388484,10.620350339331393
-8.313525864760042,-31.25699538517264,6.4057183284893595,11.901895195669729
-10.72030238180613,-22.52529013234236,4.433879811076165,12.954505636906152
-12.130437210079187,-32.21990731615102,6.28163032484343,13.52584482734696
-12.394420713682221,-55.887248852349806,11.093654486608042,13.955730747779322
-11.105129397407069,-75.56642445673074,15.324482685238111,14.815616869261582
-8.15292136431479,-73.69522445633899,15.441111676674693,16.3209969245177
-4.2040707112325615,-47.75494088924715,10.852990793494593,18.496660366518583
-0.28324556633975223,-13.173444136681821,4.61127225656601,21.827880790321245
3.252805214430178,9.27514575542261,0.9636083741046789,27.125523633566353
6.952170539772649,11.217704907621597,1.667044316535384,34.27889095090508
11.102232134771526,3.3776371473575404,4.395149946502707,41.2477396802875
14.55528131623838,4.686791526502885,4.865320014476777,44.72696353007193
15.253976181084846,23.605352423850015,0.8890376395666448,42.28652277905057
12.028044210952347,48.633165336864096,-5.302032878407075,34.365037416409244
5.603367638355648,56.94896912963705,-8.663769536420885,24.525991921033935
-2.066116163917728,34.60936300372165,-5.698369733312861,17.5093991519894
-8.968331832911957,-8.52251016922381,2.0882999227289973,16.094571861591152
-13.521089139027495,-42.80324525550967,8.752445420023944,18.972315594919248
-14.675222517044102,-40.30245517708088,8.338711180328177,21.574787372507835
-12.268806028354065,3.1844467319516583,-0.3822332738185416,19.523326254895515
-7.270258100190482,64.0120123066398,-12.81873621158246,11.809560729106442
-1.2925728467077588,107.74829351838328,-21.947485265611093,0.9719794439994466
4.290198658124116,112.88126875332398,-23.249922694163246,-9.461611717138036
8.843054570692724,82.64055570431934,-17.28258210143019,-17.53357762704652
12.471289697986156,38.473091406991216,-8.39972733640006,-23.382445415425853
15.857856116020818,3.7858447068635526,-1.3658739503426076,-28.0641727809408
19.93573949966794,-8.742546990332619,1.3129610118355575,-32.08478272549594
25.326865130114285,0.23166864875187673,-0.07512385226017727,-34.57073238399906
31.966550334744547,21.673795702320415,-3.5244144547808416,-33.53760972224496
39.21794956984028,44.88543414775175,-6.803578945533607,-27.469336791973333
45.96527809333072,62.262833226368116,-8.599154348352757,-17.408155214776198
50.23998871464616,71.01500089609077,-8.971472050450982,-7.634723048990363
49.17083078815383,71.89311802320488,-8.92645999812638,-3.715607518618051
40.35384122327727,65.97355484703,-9.286443173011945,-9.085109310316072
24.020074293390508,51.832361434564504,-9.648288392209917,-22.793218528178464
3.8294889025110517,25.650812797268294,-8.353851144086205,-40.014927056859264
-14.87648178790934,-14.852182029799508,-3.7468546206626785,-54.76314578495223
-28.058593564179148,-64.69844700118938,4.018124055765396,-63.0203407021982
-34.9100666431233,-109.00428553941236,12.03902258357536,-64.54959497551901
-37.64028971935596,-128.0574114617034,15.768778386013098,-62.393665920554724
-39.54675967960152,-109.12383614596853,11.87525634790408,-60.35985731081471
-42.50434965625832,-56.529133652636325,0.847960131254467,-60.217177093912134
-45.388905352298764,9.188127835904645,-12.888196210438768,-60.665381348096076
-44.96664297605119,63.42758641089576,-23.67621219815796,-58.74672196504034
-39.19865228938695,91.36844811125455,-28.07776998750876,-52.46763287438426
-30.22693793615715,92.9201806077488,-26.411759291759182,-42.66551822884431
-23.7105690187144,76.5865138907897,-21.41163049564547,-32.83496187248454
-24.433927923356702,49.43481581038031,-15.45059823347832,-26.894129713372713
-32.085580924187354,12.83698372326607,-8.89338710473551,-26.21856289820163
-41.127691337297726,-32.60614665906699,-0.9482980872023022,-28.181188235122672
-44.6718841342957,-79.31365858648181,8.144083309952777,-27.718802744966844
-38.8564329044356,-112.39506359353919,16.190383987538723,-20.863723874997397
-24.617112222236493,-119.63294292613377,20.63860835607311,-7.140286548262492
-6.458683354449334,-102.44409332343987,21.01418144734625,11.104130995059107
10.223440294096944,-75.3051664575791,19.34507538715222,31.07533324075667
21.501074591717643,-52.687951044280034,17.91708958462594,50.86047853152272
25.956900681612385,-36.97070854369701,16.906634961680464,68.98291870364656
24.522686138354896,-20.572796805423277,14.744512019027527,83.84986543039545
19.910452052643375,0.513139447925722,10.846879414422482,94.33773155919445
15.967155704325451,17.960492952976278,7.393044827876271,100.65409984195679
16.35205037264143,17.75064261115402,7.794388670765166,104.10604079447924
22.34767645269917,-5.035138613973725,13.318854638657987,105.94016822737132
31.357932698479626,-39.69051654181464,21.50465221192663,106.47939112652662
38.10942626419877,-68.49426343638584,28.052557099368993,105.09336445845737
38.26338048128717,-80.90710564678285,30.18507690106023,100.59065091360519
31.50066301609746,-78.9068570544211,28.150277025083035,91.70296235551736
21.51174103127153,-69.71866057330513,23.799847717257848,77.69816595878208
13.28501981429958,-55.66285463098202,18.248259746296025,58.952759344265395
10.137677508326167,-32.80507543435833,11.250339098709087,37.11079628040805
12.310556070710469,0.590371478484716,2.718454103893392,14.778695895512724
17.305364279107817,36.36639437007081,-5.72988746741545,-5.092873525165363
21.36983368383869,60.01118320239707,-11.400054083754794,-20.217349438103895
21.43115655697088,63.50892152371103,-13.004535657695136,-30.203612599875733
16.604072906130106,54.047811629519,-12.281433848937036,-36.93933585196418
8.514488217395579,48.26012067559973,-12.652738113405844,-43.12165981769396
0.39776334348430653,57.18545129013465,-16.060630103325906,-49.8124924405772
-4.451112357654566,77.3509634145705,-21.255010985074893,-55.43406711963232
-4.230342436730444,96.14045391648177,-25.21793015953453,-57.37024401971436
0.46661116864066327,104.07449320836385,-25.997962355527033,-54.52247994404561
7.045086688305084,101.23458288763803,-24.05219048772167,-48.25939121111892
12.488543138463625,93.88530909111402,-21.2467880451733,-41.08061928516691
14.850438390690943,87.24483302934226,-19.016757720028735,-34.51130615498542
13.46598904000232,81.03157911136579,-17.351447781757837,-28.16735130591037
8.290680740914572,69.84013512937439,-15.048757092073027,-20.83045099929986
-0.24784624321080198,47.6634988321459,-10.856397661865124,-12.717870987859245
-10.636036296911092,14.293737668746015,-4.810231958928536,-6.741664712934228
-20.22585897481613,-21.254653939784035,1.2281521426484965,-6.83013338246697
-26.58962952765311,-44.86613135478597,4.587586718091864,-14.109223119926192
-29.088153636116754,-47.30933234445762,3.8319347842648255,-24.59087417883793
-28.800999287642078,-31.80639186437472,0.12009880340195737,-31.226042340833807
-26.76225203968176,-11.953728078436978,-3.4492328519643927,-28.872371240940282
-22.471651534858676,-1.2062949344763003,-4.1052886798229915,-17.776249859414623
-14.470108909314925,-2.9435341560163883,-1.4374704329278214,-2.9629988413031345
-2.680097693829547,-9.999439236539438,2.530833613984479,9.168213428938113
9.606360591342387,-14.003362067075287,5.3073640635178165,14.292579737173156
16.241802845721345,-15.200913005295147,6.1640075507161445,12.110516788628635
11.651130099017498,-22.45484494970524,6.541063987590754,6.1856766444006075
-4.865308932355928,-42.966277653774995,8.24279938320934,1.253296595180277
-27.35293083134138,-71.92526481909455,11.191568710211163,-0.786294802564343
-45.98012750420602,-92.48647277156415,12.928723014172435,-2.583140536775714
-52.831575477805806,-86.78363347323685,10.432889517163964,-8.13112493523658
-46.518567594503416,-49.456434552622234,2.8066863622530063,-17.193829470013572
-32.33418491347326,6.288515124889208,-7.354871887639224,-23.568891296219736
-18.27009159324648,54.735471762837236,-15.160927674127397,-20.105917008993273
-10.045888335207287,73.01222102391301,-16.59820273618307,-6.052591118557761
-8.355582537855232,56.78479356437601,-11.581262846231375,10.731231321580784
-9.617279986509365,25.044284437971616,-4.5160093352649815,19.310545398399743
-9.288449905975668,7.091445722113966,-1.2980641184001684,14.134708116584456
-5.265016749827892,16.91437199538841,-4.160792132866276,-0.9228737962808109
1.174085247381001,34.05001777484971,-8.21655559658679,-16.01734269862105
7.429828901413767,12.174393036301579,-3.6257073665201682,-22.82738974275947
12.42850963253091,-82.43142440166439,16.476224686043654,-19.699794726801656
17.30062211266959,-230.3112176325175,47.892698795035535,-10.889323534970544
23.400495950810882,-355.7460646666745,74.91303850159488,-1.9554347758785746
30.13373874427291,-374.37709121216005,80.03675061241388,3.7847943403250435
35.05329720078983,-257.70441419277336,57.08885539790157,5.341262173771889
35.96772662495643,-59.22558156050493,16.656677230281502,2.6342064025956033
32.85154208718381,122.12082828051982,-21.107816560252907,-3.6005027609911204
28.04885742889978,210.23814945994536,-40.24141553752228,-10.859113117038076
24.97797383410794,195.9169644980408,-38.11548346778316,-15.36335134774636
26.27073051314172,127.3103452476811,-23.959277011866426,-14.606924054194291
32.22237722701545,64.69332600535624,-10.04914105333717,-9.41020502017332
40.40137716334051,40.43034125965454,-3.553588338243994,-3.097272426348806
46.8489795891529,50.26934693973763,-4.363939835835402,1.3298605467552356
48.15999707602811,71.58113176766594,-8.369462992976448,3.1183732144841967
43.046635938264714,86.80445247392211,-12.064918522198354,3.341179464388899
32.68936469246241,94.33973507690482,-14.867192049859408,3.2622190454553324
20.21023684273662,103.03019919543992,-18.15159092056496,3.311880227119974
9.573621474496356,118.0398567015577,-22.510023389707417,3.183877895842314
3.772159838559356,131.0246243974158,-25.942081856845363,2.2210211246881957
2.78126379893209,124.10617698924415,-24.925071701883233,-0.7321638008959284
2.9596846512200945,85.5857313358161,-17.698503520923104,-7.558895491964495
-0.7490333910122473,23.838808347957087,-6.704610523008239,-19.63228674561147
-10.768269662424498,-34.09083661488675,2.477119225339808,-34.65410373963455
-24.074688903374224,-59.82836585344714,5.19743394633007,-44.39970986487075
-33.367081722092784,-43.635428360793185,1.373248882633867,-37.7693119016434
-32.134633716619916,-1.0744940504819986,-4.556271684743793,-9.402885380440882
-20.220148661594425,38.9269175113074,-7.391725832090247,33.02222904459394
-5.302281371982105,54.733464422725284,-5.33600276298895,71.14787432496506
1.6631722462419374,44.37971085915737,-0.8568949662072229,88.04679189132627
-6.020382107363941,20.41268307924383,2.347018154702009,80.03131512045826
-26.271320560429007,-5.810616771196307,3.175670509143395,57.63933147859613
-50.17432755467356,-34.10383300201941,4.022880423268913,35.73890409228943
-68.10065490643703,-70.39595770673945,8.037831767317059,22.847776125266908
-74.77245636876471,-113.36715125518175,15.59880395106632,18.983204145805477
-70.40611812912294,-148.27346822833357,23.44206310303511,21.446818056071958
-59.06099285360154,-156.03327603196925,27.18855614693177,30.140831097733404
-46.409722529395324,-129.5120278329164,24.793920291638088,46.141338309563054
-37.61737492597392,-80.7657842657361,17.767453225733956,66.04141013034356
-35.25689338245214,-31.697386339610667,9.358599101396488,80.05786496030409
-38.153905473855474,2.67442115382124,1.8455540928274383,78.06161704902215
-42.38256210992695,22.041936230932976,-4.359040310775268,58.619842749169564
-43.967379170534706,33.287957945696924,-9.256693095857308,31.813836400609826
-41.13792722378639,37.08126908782976,-11.453912159368919,12.183804291484106
-34.49011838292004,23.683128101728595,-8.30954189033417,7.8865340439610465
-25.452439264916197,-16.38047004164134,1.62427839862882,15.585899395457899
-14.704083023635581,-76.19741030670377,15.896204458826649,24.596358621800913
-1.7982219634170498,-127.42970538928091,27.958654611949065,25.523090750373306
13.862571345482772,-135.034993097667,30.573152965444173,16.191162707972744
31.52384833777252,-82.80662999195853,20.789578493135043,1.391757460988231
48.41547057973494,11.29225060573813,2.520610074251693,-12.188739304450795
60.892905423130905,104.74408875981908,-15.803712051474788,-21.86597739809399
66.82596010131627,159.151161048907,-26.982926088914997,-31.3569841842459
67.29512058427075,165.8489734384076,-29.735158461756875,-47.40975097246586
66.07673114937843,148.73529354176014,-28.710850127677283,-72.89789041380652
67.309874172651,142.0558251480508,-29.877493915557174,-102.50369545130759
73.04066448413025,159.1377257802217,-34.73714307051042,-125.66299464715311
81.99696439244155,175.58409759468998,-37.800887591575226,-134.72679991504026
90.0395322026799,142.7568618790745,-29.8093770693454,-130.91959851679533
92.22492330981612,26.688929596895253,-5.222228214174532,-122.57433587263108
85.75875127022859,-154.72130539704384,31.288250132410294,-117.40785383115924
72.08589692922119,-328.673042122021,65.07619971548657,-115.87170537330698
56.33731474361047,-408.3358609867373,79.74811890547204,-111.2118296575373
44.22049038867022,-350.4323225788572,67.89934820032998,-95.83965707488413
38.57502157690829,-184.74484146581833,36.04026702007432,-68.46562304606265
37.93715532386224,7.013346418951768,-0.048181707865432924,-36.082065435594345
37.69219646681481,143.22936812203028,-25.314126349552733,-9.267010205920231
32.76862477263923,184.46290336966166,-32.98492636649231,5.159391313810853
20.373764177936465,141.23982276484978,-25.462151583377434,8.047067317747107
1.442030743313933,54.36912707074845,-10.35106078162363,5.669552717028454
-20.01427541472145,-30.655929295517804,4.15135027870219,4.116430671759799
-39.27377870063838,-80.943385516417,12.129359888641462,5.447217182604101
-53.37877405913028,-83.6210912812914,11.193947004098646,8.147748712463043
-62.17899546207971,-46.015339644562964,2.6827759453444213,10.3550465582805
-67.76199410039877,10.683717098547199,-9.305484962421684,12.635979361889332
-73.02753141620583,62.866068412117535,-20.043122226636605,18.181117875225915
-79.96574247190296,95.58512363955602,-26.435959428680267,30.340304530921603
-88.0464537662598,106.68045813816951,-27.956772587241947,49.377165637117
-93.72410599367284,102.32676257632696,-25.785593240865236,71.3116072214349
-92.10038766557302,89.26753233628867,-21.21817104946877,90.33114783249883
-80.20576185468528,71.0557279801386,-14.942230692659376,102.79178256296386
-59.615349990939194,50.557760639436104,-7.714934042349508,108.88446534791595
-36.35628749761683,33.676283589653075,-1.299382297162559,110.50961326203688
-18.073606585519812,27.829010963253133,1.9137930374195586,108.21353412246769
-10.154849696821154,35.40614139111961,0.6736795071054348,100.80578473765524
-12.921666076456441,49.52028449889253,-3.715687224890447,87.67620040971175
-21.481933231558575,58.023443175739054,-8.015556533751042,70.75847795218014
-28.590914240808004,53.32912823533972,-9.434957056603322,54.10161689036057
-28.9128701609056,39.41386300245788,-7.7546903617626155,41.85635016664496
-21.735893025466492,29.270090311751527,-5.312348056741888,36.38640465898538
-10.276125519049573,33.76849605524039,-4.750210756659922,37.22423517387121
1.357229226126814,50.432779498629735,-6.370791005878791,41.010541768349135
10.676931791356939,62.16766258119079,-7.465997644392637,42.66092171166442
17.075472475308985,48.726327871312236,-4.420902093383198,37.504363221420434
20.507911651313105,2.6046328299656385,4.082860730397015,23.328339378187042
20.413261640217403,-63.33297234259979,15.485192554742873,1.4666320342707253
15.99375489676565,-122.25346118711157,24.682844790863676,-23.181496570263178
7.618528533102646,-148.6093450405175,27.18401329774556,-43.41467744326788
-1.9197126083321905,-132.11633340047266,21.82887254762793,-52.730614251189586
-7.790216903021103,-82.88072179878432,11.43985299262036,-49.132196466364114
-5.5928212141504385,-25.520761631710158,1.1681150879726088,-36.88126839034012
5.594653931701055,14.342101632586402,-4.403511403224166,-24.084249299169784
22.097913910108645,23.27444919585126,-3.6123482222062155,-17.563051280912152
37.56301734695513,4.779228053434441,1.9035174700625572,-18.986424955649948
46.3969357490636,-26.299586255138415,8.751898524818994,-24.97730346798685
46.19013278273763,-54.048909404457774,13.854372660993967,-30.586507065715626
38.02637091412912,-69.11185960618691,15.668132374348653,-33.32637462878122
25.452532609398514,-70.71568900184276,14.313851267114702,-34.92097267796226
13.168541813974109,-64.44307567456309,11.126897407552047,-39.492605642120516
5.706921885819802,-57.94602769703961,7.993137417909321,-49.49377977567523
6.0336802855593445,-56.40326976161938,6.511534071607475,-62.87404348998732
14.31514843160171,-59.85781077459453,7.193654454094162,-74.29007221833344
27.36443998971282,-64.17938027556288,9.206650088507232,-79.36708795014053
39.36998801376512,-64.9164865047597,10.956149389142965,-77.89065358797221
44.35118125062499,-60.72292482621437,11.148977779745165,-73.06434341012151
39.70362574568101,-53.536958091875164,9.568812417503786,-68.1188104716891
28.459306882023128,-46.2199415659235,7.10888150289725,-63.69756432459812
17.758528035560815,-40.75915442878207,5.228668981954151,-57.76548790263977
13.935410499311267,-38.06581069823243,5.16153759997432,-47.281492946424336
18.027448795221964,-36.97700954083649,6.970818288787828,-30.332954556324708
25.396374785176313,-31.63591049135852,8.808410141787784,-7.94246337757572
29.412411299711703,-11.96034107846672,7.41330573740895,15.415434759916781
25.950908277391914,28.2435414356469,0.467502547592913,33.577483276678564
15.651907480530376,80.69009847022079,-10.665952320049707,42.14222446754195
3.1137286265583297,122.41739599474829,-20.760038558066,41.143981197120475
-6.078920350681339,131.29797192964838,-24.252050544989977,34.876391609329
-8.789604609792637,105.31620335392671,-19.82472490063236,29.15195529513327
-6.217874849706003,66.89152118147514,-11.817795313861955,27.944725214322116
-2.928716697231968,46.47577936333782,-6.968778297750096,31.288991184049124
-3.6307202228649986,58.938957306739056,-9.192655102166139,35.63455486841727
-9.989886771066654,92.50147291339313,-16.67490233507699,36.84296778085144
-19.63665605389793,118.68639528255001,-23.42998660428345,33.962860212068406
-27.882409190700127,114.46285362085015,-23.906934049694392,30.338824045278034
-30.94715896512114,78.71153682238723,-17.016994029459084,30.397619869648704
-28.56750188468504,30.739818159337585,-6.57946340801153,34.90028960787484
-24.042055121782663,-5.976740191548668,1.8460372081711047,39.52609732684363
-21.453187892876734,-19.640454683587524,4.838546806373269,38.44055381904542
-22.269076365154227,-13.15923576301774,2.614215401157722,29.48498007155076
-24.389151018374434,3.797220346185369,-2.2798649950115992,16.28222348554113
-24.48204985232027,22.342143965416223,-7.015135212250045,5.667538445281942
-21.258933540265115,35.258267816530854,-9.511463773697933,2.7049158559424114
-16.643245270516445,35.83532800495946,-8.672352609706781,7.050959154978057
-14.117701358950509,20.887769624530762,-4.763001886902262,13.317385374602644
-15.976493968920545,-4.204830710421191,0.27976449090674665,15.255154107286439
-21.576805733008342,-26.01444108566588,3.5949201165713958,10.504406482350943
-27.575259437911765,-31.401447626239854,3.1806063428799587,1.9180428228115123
-29.944075523326525,-16.99824529579963,-0.7003196099245603,-5.469576639109326
-26.58557292400459,8.412564741886827,-5.735065671737699,-8.631711453837685
-18.759423648886802,30.193410377151917,-9.152534530193838,-8.089539228070338
-10.15924531995089,37.33442085180863,-9.392451623611347,-6.323603863647399
-4.3675936039226375,28.11626851379881,-6.737239458409448,-5.481109689596489
-2.795735013666526,8.575907136684648,-2.6518227034796644,-6.3016025020280795
-4.497499559108309,-13.87394261210716,1.527337885009705,-8.197598923249839
-7.355412252771826,-35.311902428793694,5.383806869810246,-9.827926786209426
-9.287750135763934,-54.272458474717716,8.988878001553891,-9.923901341603184
-8.850709482084222,-67.82715504081875,11.968956193374986,-7.991205380597673
-5.490886795928119,-71.95741318997399,13.546959304230803,-4.34814507026812
0.2706680239371591,-67.30998477530686,13.719397328898845,0.2172659498473353
6.836681400120218,-62.11144592148427,13.840181300317015,4.361619836995761
11.998200189773312,-65.40125327210289,15.286031914019052,5.993796525665889
13.993413542569746,-76.20615830742211,17.47802518798637,3.274379830962766
12.782166728531337,-81.67352536480163,17.83607835459498,-3.4152505438824954
10.509123812225361,-68.59045549533087,14.223345583128173,-10.930743673571007
10.277665587827673,-37.80507776363813,7.519106337661889,-15.640007138313551
13.833703899515735,-7.033383765052665,1.6375292365600642,-16.393344535652496
20.168567940849908,1.9592920745757096,0.7149409449378897,-14.959538351789801
26.39540024034263,-18.245588832493606,5.688639277094738,-13.734256903762937
29.952687966829114,-52.439068055772886,13.083900291493558,-13.534526882175998
30.00268774455992,-73.04774346512819,17.27630922459155,-13.513634545528465
27.200501769462196,-61.64134863486829,14.712460774342755,-12.468076286159938
22.85161915765558,-23.15610559897425,6.602006326630515,-9.867138963991296
18.47851996504778,19.900177213624794,-2.330986393696089,-6.064352275880053
15.561946411517209,46.85800918472989,-7.794410830786216,-2.0068950582199396
14.926310940484267,53.094860738981566,-8.838374065690477,1.3154920726432227
16.152912783434004,47.87153922258653,-7.442298727740172,3.371820193437134
17.771468466471596,42.00931029532456,-5.990288277567325,4.080815727403937
18.15981986902985,38.94010435519144,-5.374055594647427,3.4786032017004636
16.394280246873127,35.40148734475367,-5.015241078871745,1.8839017192385032
12.58013630357892,28.0293248257519,-4.109188686572674,0.500843082242751
7.676960910188018,18.833668868844253,-2.787574645760562,1.0927540019911737
2.912098236535319,14.863040118416405,-2.2817100503218595,4.212299251177007
-0.9472562021518972,21.70779454426257,-3.8114478196263613,7.88285895575503
-3.8473369667841895,35.932117966550784,-6.967175042385771,8.842434850071486
-5.986179138923792,44.70080705617656,-9.313156779973164,5.472554579166919
-7.392664611881872,35.92856686878172,-8.26104196211256,-0.6978836711910228
-8.31065606815849,10.982837765889391,-3.8181915057880262,-6.345894172022276
-9.769147756859848,-13.338257832428466,0.7158670800084297,-8.848282753565528
-13.034868956937965,-17.640655917159332,1.29540537596796,-7.686745345293367
-18.09469863884692,3.3945056989403635,-3.2948932072852215,-4.378069673282261
-22.973313869407292,35.71539926423448,-10.198066169798539,-1.5515411322759427
-24.969934681559028,56.41788279953967,-14.634607059252067,-1.4317952975791322
-22.656224922661586,50.88545670184458,-13.484866099105844,-4.26888187787847
-16.76649518141713,23.252356953425267,-7.501330306135744,-8.106800246052385
-9.566611639308231,-7.015936741476567,-0.6884341130296798,-10.45785230794704
-3.598356566386338,-19.727124746580127,2.6407929301268998,-10.244227635144316
-0.5185472999119863,-9.025355021839244,1.0479640535957613,-7.986636451589844
-0.3115126459548598,13.05621981771062,-3.095923686000495,-4.506157140824435
-1.3966104639783472,27.725156384811278,-5.810264508341745,-0.1141679710494733
-1.9805264147395316,25.036847540194206,-4.886274883110475,4.863296401202046
-1.6887313314274326,9.523023361975,-1.2990827275742165,9.310557714998646
-1.7167817013429565,-7.665503736348836,2.380832357906527,11.451784693305855
-3.1306969305832304,-19.705682417887974,4.508177986898331,9.850550736174231
-5.135682543387117,-27.03823286196753,5.280872311561751,4.6325154798342005
-5.315440156223466,-32.44444469346494,5.772402152863388,-1.836805654258472
-1.7560605912688458,-36.30665034563674,6.63272684804818,-5.808457083647932
4.897132570756829,-36.91483103599439,7.661850158787973,-4.779341887475361
11.269333538780117,-33.558021151724205,8.194855387507088,0.051023618310266305
13.292040467844272,-27.757249591400296,7.6566053592226275,4.3971584401139046
9.215794641827896,-20.85881853728815,5.790981187935516,4.762236293102757
1.4270431056950006,-10.630781179598744,2.5036629035998197,1.892045576541453
-4.788300207950803,8.035119590093268,-2.204817181226068,0.12788909080730568
-5.2234825814085815,36.287561082980886,-7.712573022253462,3.248711026932262
-0.36832629248112697,64.32086177881519,-12.120391450609022,10.901108903452181
4.827227792994601,74.09066571602834,-12.760557734191641,18.750902219706447
5.227238398110519,53.304305113472296,-8.209925830523009,21.865730073198893
0.0006017800483557328,8.626833185747289,-0.09006367061829977,18.39886484857051
-6.815843725676416,-36.227576786047685,7.4954906710513,10.767848508186063
-10.005080284785722,-57.84522743336213,10.83500801826131,3.457024024198914
-7.5216483891099095,-50.67402143197293,9.303371855859808,-0.7393314514191253
-1.6997033290668921,-29.23104340027611,5.494682481854039,-2.57806976993984
3.327548693776758,-13.83856395442949,2.81403231227669,-4.4543341619696815
5.310361904560374,-13.059444617481873,2.678926928336846,-6.880816171262496
5.25575833722667,-17.82282105177652,3.580495553729824,-7.533333827552649
5.427267986860031,-11.710496528936476,2.671545461846477,-4.087649875013761
6.293039607351702,11.790234834355987,-1.4002258658304243,2.491268862247871
5.879723618941919,40.506672033209945,-6.781149624367362,8.03030618029233
2.359420689174627,52.057707596106795,-9.516456770136864,8.473770560390166
-3.0834469341244586,33.13948594581976,-6.825858429414784,3.0949371610938883
-6.573819848591106,-7.566907759370982,0.2838506016236406,-4.978092227429019
-4.980344774961861,-45.191185628879325,7.588797749724484,-10.836021915137689
1.0631330863194863,-58.358923222892145,10.990007474403642,-10.953555227284594
7.5161900657535705,-45.064949137981465,9.554899006455805,-5.683939993070202
10.139874043745158,-21.26237097254591,5.620085571724521,0.7123877894474577
7.62212856201218,-5.276302431803615,2.28408961746813,3.1197077630876633
2.254453865524347,-3.341006280395981,0.9142523135571659,-0.43739535114456707
-2.0573340485950093,-8.535532021785771,0.8128071641061747,-7.407867145386304
-2.8057895784104594,-11.727108824798336,0.8553434578042804,-13.100499695536525
-0.6042322278298508,-12.199022068086826,1.111735396157568,-14.300377214269817
1.7067327399636314,-17.042956404579574,2.6767398866963705,-10.987136882940991
1.6473465737442619,-30.503762695114386,5.888867553974486,-5.602130502480392
-1.0361543395882875,-45.56860945747647,9.012418274173772,-1.2549765331047544
-4.668822122385329,-48.21050620603447,9.21960576232479,0.01312753244638873
-7.253835311100796,-30.684404069892224,5.193557366280487,-1.6674134568544383
-7.709410848326423,0.36486101095463674,-1.400700428987671,-4.2622546798459195
-6.21618502240382,29.513931427727886,-7.254703879658408,-5.568266710082484
-4.09728246636663,45.18882773241238,-10.117647564145779,-4.894091839991306
-3.20340883003699,46.41235270871938,-10.084275285585521,-2.9826381273332605
-4.53380309242215,39.46819339546329,-8.619523944387552,-0.5761693146658899
-6.969832458284397,30.926863314358936,-6.915481656467463,2.3846068018874083
-7.761644336935323,24.03276568834853,-5.277006048173184,6.098894320144033
-4.881539558225554,19.276903088104927,-3.6085094847690566,9.98634020265673
0.9215972029387399,16.424257076664777,-2.0732064010712423,12.724120053606043
6.481484180255036,15.861415917620434,-1.2561506131609301,12.985690025471477
8.66210388964512,18.16079893798209,-1.7140746889748575,10.135025859810275
6.696815312872922,21.97788947437935,-3.2176533936387606,4.7255986817270195
2.665661504935616,22.92831856324388,-4.453091675137928,-1.3655307055984613
-0.02914742589524172,16.586696992853962,-3.893153117570926,-5.77841153625166
0.9056838808589024,4.111538783202439,-1.382839882404337,-7.293900570699109
4.988897336194225,-5.957361821429795,1.2199200441076552,-6.6341142724973485
9.463207377528306,-3.7830283499864685,1.4408230220585398,-5.3513880567037635
11.746295823900875,12.311227989778128,-1.4326596563802487,-4.073103803492527
11.630648819759505,32.27419358759756,-5.3354421351899495,-2.2497589801403706
11.027125891124847,40.80082872685753,-6.895547617535341,0.4619712059656089
11.586822784507763,28.587042622214025,-4.110170690989424,3.0876287475511157
12.805192278619602,-0.626632620841782,2.0299509124030326,3.748831619970099
12.493446024090394,-31.782040904707472,8.062978340917475,0.9279834870342913
8.877126961744185,-47.06573636498927,10.14125925024347,-5.530285226156623
2.2515661401321383,-36.12671651753787,6.349420484180425,-13.962308025068854
-4.947132103711769,-2.4076171887508413,-2.0188995745799136,-21.0784383697204
-9.39522567526245,38.45917604849593,-11.054748239700581,-23.236184609422402
-8.679998892521049,67.69590753270842,-16.477836900597403,-18.520801098816136
-2.807435721028555,73.60489849679448,-16.024817089106985,-8.161861914299477
5.442468260291236,55.87496074170054,-10.327826067029386,3.901245201323233
11.692309219476648,22.70703027285358,-2.0174322586822977,12.898707253999886
12.077964620295353,-14.820896620065941,5.872566048052098,15.370016856646114
5.193720514361845,-47.06731641351285,11.16836710622851,10.822769821296312
-6.926388443460208,-67.97141859599314,13.159712796388483,2.2676689275766067
-19.278531625488917,-75.22730566973814,12.442942952655,-5.275490724702993
-26.11432190583141,-68.93858904641652,10.082685442747916,-8.025987272339172
-24.234203191940182,-50.951003584297226,6.847064330255901,-5.955814888118356
-15.169353635182118,-26.61863913692547,3.3621307207509745,-2.099360382417751
-4.243978327539743,-6.011951910137867,0.7551173894322508,0.5853156428788989
2.928049385968193,0.4826119132376112,0.39152071622509577,1.459997958291904
3.689685150687188,-9.19013219679173,2.4688053195521706,1.6845875447199123
-0.8117359421030881,-24.70770580342094,5.138111281756534,2.4426664459417995
-6.894116498229914,-30.09432120838019,5.6487593666513485,4.213613404985546
-10.353184870673044,-16.53450568222347,2.7464068028457076,7.241055174334807
-8.480361864610572,9.800774553795137,-1.958297419384892,11.822070053150153
-1.6368868405340664,31.595894837031228,-5.003995452091635,17.84254427728698
6.6428622607306265,32.930553212035036,-3.6891660517737614,24.20366672098813
11.701135080837703,10.97828901383557,1.801249811358071,28.802812237471276
10.810520852647173,-22.082912073513445,8.448387655207823,29.28049021487722
4.884242234600689,-48.45218651473579,12.644621722356499,24.475430981243413
-2.4053686198489217,-57.57410371606304,12.824145082233882,15.81391913648575
-7.207095628030792,-51.825946444427736,10.281619586392331,7.078106233889262
-7.884142501022527,-41.48997856173504,7.637213572917213,1.9500945887308756
-5.811851928320462,-35.32593830392969,6.57393651063122,1.231871508408103
-4.134547154515661,-35.17294541709675,6.865741568078088,2.5383842148932
-5.147791156245314,-36.83491189080174,7.106440024230422,2.8376102813931436
-8.145374178871252,-33.98370215345338,6.018036148205233,1.2504227713267198
-9.679794425116983,-22.17917366123512,3.281922922904672,-0.43138097403169656
-6.335113436861092,-2.057597439201022,-0.31809554139068946,0.4205655919061262
2.2424988095118747,20.17826876055724,-3.396072228896922,4.728814980414086
12.617208532279342,37.26076164968713,-5.11308405410963,10.09014814114936
19.651634318625135,48.109337452166805,-6.348110631452057,11.290660258450847
19.753000325236062,60.35084139484321,-9.532497986899076,3.4145156864008035
13.10184015094589,83.26461223259847,-16.574649955077227,-14.051740824694164
3.5623723624052834,116.38797292938733,-26.409202242000763,-35.577854858819556
-3.670333468344176,145.2520845555131,-34.67802201227018,-52.4623435402416
-5.255371372084222,149.98114348948064,-36.34582164250551,-58.15417884093806
-1.5816930351201401,120.41145652792804,-29.316274378001555,-51.76537440710983
3.938089215852054,65.24621792202396,-16.166337164197113,-37.64782871379821
7.405224479461592,7.626361139482545,-2.6564912397005274,-22.28717585509412
6.834086206094265,-29.794210052530133,5.911092399957853,-10.776735893494381
3.0879057687161304,-39.060602156110804,7.911069768038995,-4.396837860708899
-0.7273704676398581,-29.567545439692903,5.872772448950777,-0.4630387286028948
-1.0684438621140395,-17.71590629516056,3.918215835532718,5.001692903225932
3.5681461939342234,-13.528435954010238,4.390689035382879,13.377201592132499
10.936289709475354,-16.294142064060857,6.604673383452109,21.709097951558896
15.976922521855277,-20.9668550634883,8.458441487716788,24.912621975866074
14.44918519835135,-25.712613519743208,8.785806333409214,19.933774076932444
6.416837497950419,-32.03659061232951,8.02859597148801,8.194738960530959
-3.6546986441822313,-39.75687735414459,7.138862675749854,-5.392958799396444
-10.34413048659997,-44.91994493757523,6.443248498703471,-15.656201015034858
-11.152129777534551,-43.34538791915562,5.611272044949978,-20.23609551120421
-7.696140971636544,-35.03442282864546,4.317604739730706,-20.550101066978765
-3.774030112503475,-24.45290582558552,2.7038108334562674,-19.934440014064467
-2.1737747519482316,-16.57992929214434,1.270651350892914,-20.267704479224
-2.6066222771129466,-12.21836692660712,0.35079111970682586,-20.061829410159326
-2.2671389944386,-6.698249025601404,-0.36795939627488977,-16.068668289220604
1.274063511043749,5.736388232473208,-1.6340883516142974,-6.921102226610342
7.217932817079531,24.281049645386876,-3.6000926071600445,4.964149465227316
11.549157264238042,37.91173899880383,-4.925611245621016,15.074644735030086
10.287306145666205,31.55835554519777,-3.33521469895677,20.108105098115896
3.0614192869420807,-0.960832062111072,2.354671223259095,19.773736142233208
-6.354029183438332,-48.394123840040166,10.510446369548848,16.17445097745618
-12.896705333540526,-86.92476957047826,17.163981775682014,12.070742687462518
-13.753004992549915,-96.07068342004023,18.678070863281828,9.431719715496968
-9.797791575471656,-73.235608802547,14.471169218521759,8.838429336692185
-4.4165801502673245,-35.1834398955718,7.491650717973815,9.827528306081753
-1.0712217858875914,-5.170001383158291,1.981745410906595,11.770119561245439
-1.296154261839608,4.17688635747942,0.287640436784052,14.330136810589035
-4.204798512220146,-1.2696230871837406,1.2841754247968193,17.05393951556606
-7.596289728458592,-4.7608679755758585,1.7554739811899056,19.01081416078286
-9.627677208996499,4.853041283755601,-0.3989316738915563,19.517505500739606
-9.640150322659693,22.581795803542242,-4.023182744329401,19.262186701022774
-7.777435049272471,32.46755586203885,-5.723870808666449,20.136966351757287
-4.390001050642043,23.32138942175416,-3.1411435440095428,23.59082105995707
-0.09842262125218394,-0.41077021322000656,2.7115671353866,29.237068286718333
3.9172160662935664,-22.58552107143597,8.22576195754926,35.009661856205724
6.268577382441587,-28.819737861120828,10.07362163219385,38.27457295172861
6.187270230668148,-16.080596202918198,7.346482930015274,36.82795605013608
3.9265294069813597,8.56309605116333,1.4262130538543853,29.735986557639514
0.4976939233549625,35.543439266865256,-5.516375881417809,18.15692880358616
-2.714391818014459,58.32017241885944,-11.693376142918101,5.311077942253738
-4.285888844139776,73.29860935711805,-15.871753525542733,-5.155626025599857
-3.4202112768329336,76.99082150769203,-17.08441047809937,-11.453663462311221
-0.7365308060898567,65.39992187125196,-14.691150868116825,-14.642847311795437
1.856678508211644,37.750630536753164,-9.028810431914602,-17.614833988934517
2.6076059854232163,1.3189130526118154,-2.028986249825776,-23.030521598527088
1.525314301785768,-28.895020649207687,3.207686043372576,-31.510918795318002
0.5803520259152051,-38.24584609431077,4.135845089486147,-40.97925216903972
2.2205455440670536,-22.9127913188564,0.6065378826932162,-47.80536098460656
7.346855040491323,6.336454111593358,-4.855777628703789,-49.463116504850454
14.24885677606012,31.04682004342112,-8.77348418753492,-46.62352273959545
19.382364686197654,37.71064099545163,-9.117326552205805,-42.39200601371661
19.66384713372424,26.786738149734216,-6.57671554765923,-39.20026961250783
14.650034423446728,11.546168111237378,-3.8652545070045887,-36.659427962180814
6.7704417934393035,7.385300707910198,-3.616959359215769,-32.606611425867584
-0.57240694588148,19.28935662263489,-6.32110276493259,-25.853526422012372
-5.19723820147782,37.17742359385933,-9.771741450829442,-17.588929440822664
-6.765309011591422,43.21470015413009,-10.545194624319434,-10.458377632167668
-5.9120317018190045,25.50778197775367,-6.502870003892726,-6.661628673733628
-3.3685394362627172,-12.546320888497704,1.5539794741533197,-6.444625389372466
0.10384729813249317,-53.95653509005461,10.286411870839547,-7.548885531066808
3.462137224523724,-78.78673472742885,15.866035485101293,-6.1331975892400585
5.484890041420761,-76.02081709036246,16.172991298649443,0.7488434407827923
5.235008263980655,-49.52450118796211,11.842180068413292,12.703768503460733
2.591613556798972,-15.344490277044683,5.771778015960263,25.908839899160718
-1.3816627375067354,7.706844197865933,1.4867463576946036,35.66148736148024
-4.638739594510998,8.833032623145835,1.1851305763045008,39.25947335906993
-5.27507285678127,-8.982008091980772,4.523256794381185,37.02991567254547
-3.0204866075441648,-31.98645204508978,8.969930600978635,31.49757929565664
0.28158880535660386,-45.33393794487775,11.567725706998734,25.787287286704498
1.9309913800509146,-42.23797721770178,10.790381622352221,21.909055563047463
0.40785909166612677,-26.14431850586961,7.123512533727374,19.54882658676674
-3.51111785231966,-5.718446555503012,2.21822264864129,16.456137108037854
-7.33574552626596,12.020803435365039,-2.3826856849148816,10.565757343772713
-8.57692690426005,25.201348792099097,-5.985739747802327,1.9808121962251342
-6.4425748791370685,35.87031259889583,-8.71568277322847,-7.148685694761222
-2.4506880803488307,45.83172394872613,-10.903949762507118,-14.383326943510179
0.5906115096638952,52.7930674365481,-12.298799312735497,-18.29142105769593
0.6373794595133097,50.46878807365718,-11.840017996476583,-18.500235338665867
-2.2187968423411735,34.063027425540135,-8.587953087762175,-15.511336392407431
-6.290404497457603,7.143477002016412,-3.19243278249617,-10.78174944195652
-9.930621796940212,-17.54609688359175,1.7865955821585433,-6.23388285721184
-12.351622904236658,-26.495433299503855,3.602079635544754,-2.976727601942514
-13.103760341675036,-16.938704997127232,1.7837754619019168,-0.6071073180068409
-11.605959147778382,-0.8560886992445337,-1.0671826274269567,1.9566992443146505
-7.792561696989379,3.586042286058893,-1.2131527642961568,5.169777060037978
-2.979143685082567,-12.556094561756929,2.963037351301385,8.610379537607445
0.5689994303956227,-39.35303492698613,9.115295347589552,11.688403877415949
1.2904162564433956,-53.837942810118435,12.370844585771641,14.195415985557792
-0.3758475593447395,-38.98773735245153,9.345007886019033,16.331661160841012
-2.1967558078798,-0.7198038172043453,1.5507058584868834,18.52541997669022
-1.5749719816182217,33.29619860779486,-5.058882844964732,20.974029968209837
2.804540015396509,34.45312973398506,-4.586020318309028,22.887574173905573
10.034020502689467,-3.17767871922201,3.895603243176558,22.421477608375767
17.365340999722363,-56.78026506429858,15.289211908888225,18.152755545839828
21.83391922922082,-91.3175251141746,22.190763706032936,10.879535955666931
21.975145095551206,-84.62902613719514,20.174558254510615,3.4000894494284832
18.251724705409732,-41.690733602543204,10.520991411437404,-1.9207825475254623
12.117261232627847,10.969398330351515,-1.2098003649746711,-5.124037269999852
5.0210522652140375,44.76306701845323,-9.196265755117578,-7.982532212149401
-1.708882981735947,47.884645671686904,-10.989926985918466,-11.722970156249342
-6.635324270851764,30.426813899053634,-8.412625348721836,-15.771388768699818
-8.538984420585093,12.948561092804853,-5.340127656819829,-18.470912680911344
-7.136669327720347,8.70148422394453,-4.320179389505658,-18.62241234561067
-3.3434121036094306,15.00585600987644,-4.947294611531352,-16.52306515200623
1.142835194626943,20.319202154050263,-5.245321519193456,-13.94512267510089
4.4817999921639045,17.968143203916906,-4.269717278551931,-12.944285461252429
5.352918089940679,11.818816471815689,-3.0188340574175343,-14.097011012508888
3.6965928833577855,9.70805711255568,-2.9407284691658226,-15.737508697559289
1.0729754163895355,14.501216853011412,-4.190416344809694,-15.250213737537491
-0.10053010222684179,23.439648307897016,-5.789384247564017,-11.271919014865265
1.789016331644562,34.320639728941515,-7.164100732641851,-4.585937286242821
6.322019548747121,48.42147692145432,-8.806784064845411,2.796477667815217
11.250535657683512,65.4904075575173,-11.122917558847801,8.859804465886995
13.795574281347756,77.46850349614876,-12.955314347568367,12.057598429477377
12.026974185073309,70.45375424247761,-11.792327908644797,11.556407338108077
5.675990081772205,35.899554765198125,-5.903859963793349,7.6619964822840005
-3.811136689495335,-18.420367785419565,3.427705380655707,1.6959451802226897
-13.945007476789858,-69.17465550155411,11.892857485259318,-4.972633831230664
-22.165914133611615,-92.09223829193292,14.951251032629035,-11.51306880800284
-26.43674671709007,-79.02582108273134,11.287012301788256,-16.933959387614667
-25.354652711708304,-42.12486757618808,3.710796824352138,-19.325629067640172
-18.482812275920015,-1.9782230070057898,-3.3697238503925178,-16.762061576039187
-7.192605244793116,27.296296266612806,-7.259961851421391,-9.291935749821318
5.004807350536361,41.97342227509465,-7.883025869688147,0.3096979938003828
13.748766192524462,42.30958346417222,-6.188363420789246,8.004028416428866
16.127917564444687,27.59303670211479,-2.6628452294200633,10.737389274846283
12.099166764398058,-0.8460631135315066,2.349838225603932,7.752884008358745
4.100432767825232,-34.21211143575552,7.503499266798385,0.6217384698705049
-4.323429583499702,-56.85618622779833,10.325510605317325,-7.646852591158371
-9.84571957738107,-54.23934539511104,8.532802437025149,-14.145200796404163
-10.522287382184663,-22.726676283376392,1.7500864381886934,-17.486123633655044
-6.75211218808082,25.54568790035946,-7.623809292918046,-17.853150667895143
-1.2133702055240636,67.07601012156188,-15.179107758517647,-15.632788097897519
2.7800902293096805,79.9669962696381,-16.83813020625759,-10.421762983241887
3.4819431035349018,57.68499748779406,-11.451198255868043,-1.817036484884182
1.668716783841871,12.835738858427208,-1.580497086779356,9.10107029132234
-0.2912976000135384,-32.653913878230796,8.3787490163689,19.758376081448123
-0.28289318402975877,-62.465578131836594,15.155338792904178,27.759914376878164
2.1029608102169046,-73.51556439613935,18.101286454014943,32.310212731718764
5.22599683539243,-72.26730903476226,18.3795219204768,33.97345970950379
6.404631840114045,-66.11422789303833,17.222699548621996,33.40353764203586
3.9284442606725114,-57.879020042795574,14.981774972721599,30.45386658459046
-1.2971975639594369,-45.97465761973628,11.372803798676722,24.32374850264512
-6.1027292749396995,-28.14486194824111,6.285629526878357,14.578984412900443
-7.406168436872476,-5.564460011876469,0.438941558814084,2.3676945930798805
-4.513567859232181,15.903961139593605,-4.621609615698191,-9.314253111429467
0.6169004927501128,29.161106557047404,-7.384593894384797,-17.043094259329408
4.990225555403869,31.672472302512524,-7.5473020873248196,-19.1140225183664
6.375965164150995,27.65691871805448,-6.317082723512968,-16.394017367121897
4.148416352865072,23.487286381725127,-5.275446950674859,-11.22109564366723
-0.7608867513409141,20.705807762581017,-4.823407031178246,-5.828464081343681
-6.402921026898651,14.408806323311868,-3.8618927023435274,-1.7073031230615028
-10.611811220623203,-0.7351783106419012,-1.1014040982711435,0.5048101328300034
-11.702273259078524,-22.680750919859488,3.3053144296078676,1.4356928028655453
-8.770375783272131,-40.25775736380138,7.371709114740713,2.9793359172768983
-1.9028331328345003,-40.10851643459764,8.524101063041169,6.78658745936545
7.359647635759133,-17.693721665212134,5.5982974411621615,12.255869976722957
15.96740759511445,16.552782184513713,0.07960626738615705,16.50055311457675
20.739484005033106,42.791154875493454,-4.635403119955626,16.82773018140399
20.58733876190915,46.64270971960315,-5.76489159394143,13.185775483985275
17.291550017395636,30.924138667470853,-3.447772204964314,7.960992261167781
13.5676141177033,12.608873529103368,-0.589568659276157,3.468712451432765
10.228776938225748,7.145864170623117,-0.22257897083527667,-0.23416091551199691
5.547744457647972,15.107063856955552,-2.8599019144999205,-5.207089201578783
-2.382123328901839,23.474250823188417,-6.262241850701497,-13.344161149862842
-12.726911082947394,18.993075288665448,-7.563557243816757,-23.83704507675039
-21.440706049915228,0.4382855604826156,-5.654898323728645,-32.633218607380904
-23.84180949939616,-20.36312874767425,-1.9284475142236623,-34.8900344349184
-18.124898350033344,-28.21799626851723,0.9111817683224429,-28.83894587715233
-6.988234164022024,-16.405246699072496,0.8833831298489736,-17.650963048039074
3.9443746414376433,8.627745263103295,-1.9303488143895842,-7.31290624245684
9.768527292934333,33.073093555579725,-5.72955390136546,-2.298913634242145
9.236227228870497,46.61906296691633,-8.591506022616283,-2.814262338015581
4.814718594347392,48.39215133587784,-9.731058741405118,-5.465822910379308
0.2001122293385297,43.26858637662196,-9.309289405283064,-6.0731126083579765
-2.3288545768598623,34.13687145532187,-7.430487744365621,-2.378810765190754
-2.7027661579733735,19.28275825236495,-3.8229884323770835,4.677161763902664
-2.023244311850579,-3.0693940293098922,1.4340902595510112,11.716381129847399
-1.0939615428590581,-29.487085813747004,7.258453404998971,15.558604053063993
0.2727422939496153,-51.59869175112099,11.944939583276442,15.890463083692302
2.7927756818065035,-61.39433289644707,14.184423596598458,15.256309759318073
6.450078516803766,-56.4966223017657,13.701596121752633,15.974573854102326
9.53816907689961,-41.41220023181405,11.1238566663751,17.168385035562554
9.321376652227588,-24.188500440875853,7.4303788346747,15.287249682024134
4.361096045376439,-10.827070702512211,3.4187566704034156,7.615421788467843
-3.463536388357145,-1.7622453165441778,-0.5099361133120444,-4.924155438821851
-9.494522413392003,6.117243445485639,-4.045137996302277,-18.197711707550678
-9.34088619532645,13.692891993933129,-6.41431112457779,-27.607947850125033
-1.9437404545136348,17.03501885182457,-6.463464838842888,-30.643791694554906
9.708301600044564,12.23351197180411,-3.798613890603198,-27.691303159427022
20.415920766238067,2.459796868147247,0.08961227889869597,-21.093576958354515
25.622135390567298,-2.012307123216781,2.3299590605000216,-13.382055665296406
23.541302200486484,7.733036943279928,0.7619892047083162,-6.0188428630487385
15.510049918116632,30.944425909633814,-4.343786510720116,0.494105257339735
4.5503893022699,57.04730416644101,-10.506934859661902,5.760495581008429
-6.654924938321402,72.39656587061404,-14.668226033135578,9.348474069676012
-16.71856937779418,67.4365954976136,-14.68649751349725,11.606994546140717
-24.94357885010155,40.68224449983,-10.046089663288617,13.96432859533004
-30.393512916677786,-0.4611566365594589,-2.022404016398748,17.68066591441104
-32.02777240354628,-42.35137604897777,6.693013076697511,22.216485055166043
-29.69550910451025,-71.44739090258115,13.151712406980195,25.16336159967809
-24.64166240034292,-81.1025234955078,15.621757404155,23.970840553448493
-18.871585180668305,-73.73628974637035,14.286891470666424,17.94614911381848
-13.989627555744022,-57.09865666028734,10.711196313061457,9.154486991313206
-10.360567240054413,-38.49331501211525,6.712275055137436,1.7951743764702854
-6.970487220562863,-21.440780983249777,3.5061834031866077,0.04740388711999389
-2.171972925283578,-6.142794086260398,1.4425470642199594,5.100819627137065
4.765984062493507,7.54766721463942,0.26999931787716736,13.513554429918242
12.329885653805785,17.134978181653974,-0.2580633770707223,18.99077096412373
17.21669522201846,17.402009389855603,0.08364566152850453,16.764817902819235
16.77919862951235,4.62954443779066,1.7308694691570927,6.87946396810523
11.44060360899015,-17.72442085798817,4.422131316800329,-6.358180924680451
4.723958068049368,-37.866849611619216,6.6675636679214545,-17.69625236344779
0.769366589344248,-42.20313920172436,6.503232441457627,-23.916592730340504
1.5003245124882405,-25.29435761618446,3.0833305921851086,-24.758287763810465
5.64672592264947,5.266742588681516,-2.3791978820394295,-22.143233117321067
10.102516316296203,33.54107051220777,-7.253664025622594,-18.576267444070425
12.403174075557228,45.99200500086746,-9.225738300584467,-15.531513105839716
12.434299588775085,40.58293634848801,-7.887641276556243,-12.917748818281945
12.033922431897981,28.014124043874073,-5.13102144774748,-10.110108654609416
12.830543105471008,23.52007910305718,-3.864384250378012,-7.265780069332222
14.35797059259257,33.92455663262242,-5.600135400344998,-5.159427610253855
14.372324294708426,50.102040473540654,-8.763780757129984,-3.838309182219936
11.113502943858943,53.12706036450387,-9.628104172540876,-2.1998780456021505
5.272437924621312,30.790234076427282,-5.546755761401061,0.6743372691691627
-0.19636535284432488,-10.021897644351329,2.382733733430096,4.117927335138911
-2.1813720559757077,-47.00189050339693,9.837606425280454,6.209519430148421
0.3111823600220473,-59.070970681007516,12.524580291218463,5.456257793804169
5.351748408661817,-41.42044066124643,9.26192636623712,2.1940735929299255
9.291944527488495,-7.411366769002776,2.528724772943979,-1.2305924382656244
9.215465639838746,22.084507782286437,-3.4996938658085597,-1.5649381710945247
4.8839678939992535,32.484406276668516,-5.7072336182677175,3.231978652275878
-1.3920644159503914,22.851151385199483,-3.7270302096507724,11.990165946195091
-6.813183960068409,3.1904425430648606,0.3622361444124134,20.401127340158475
-10.131146621387577,-14.522797768059098,3.858258608208973,23.776432023461943
-11.897141237348354,-23.82740290041842,5.213276704881321,20.249615131420747
-13.180057996115812,-24.831572942296276,4.47265197941366,11.525612027046376
-14.409197296841253,-20.690141968354425,2.5359996132319336,1.053858700830872
-15.23723675342677,-14.37530351829039,0.3365974741003013,-7.983313765468211
-14.912361412366245,-7.424545783855939,-1.521911336656562,-13.375195452344194
-12.616691296307081,0.6751801832260838,-2.9487445322792087,-14.069257317091296
-8.03707411010744,12.255610333186274,-4.436733063414618,-10.703845419692247
-2.2283440763629994,28.786783099333462,-6.636949861517338,-5.756663904758696
2.219934619851222,47.37467155161566,-9.567248601330475,-2.42959617632188
2.5984343891400976,60.97393428597132,-12.326778957487944,-2.9229538236283994
-1.7234429964719906,63.31303857569345,-13.73211825112366,-7.379910211679113
-8.307871423326995,53.567754772407184,-13.140398953079817,-13.832332570463699
-12.973308990209187,36.02332120877623,-10.606505183302595,-18.909224570356983
-12.54780892288505,16.02483541229169,-6.540200679557988,-19.42075306727901
-7.027697177142174,-2.9894117486700704,-1.5580626566929094,-14.46894445151324
0.45091074448719676,-19.354728429663822,3.4083880727869986,-6.384121171085186
5.91290302035295,-31.938335384957778,7.287600825681831,0.8916542622470154
7.458834472912988,-40.06863641426336,9.473304774608783,4.724057532778913
6.394233324419331,-44.60035721277465,10.30487237087191,5.183451176345817
5.5590680157427945,-48.488517801522086,10.884420173371018,3.988668188036364
6.530180726974587,-55.41430791309328,12.30575109801131,2.842352907015142
8.514972481464348,-66.46365103491732,14.799938115582743,2.9338787379562112
9.814808841012308,-77.10713839300506,17.32528291985684,5.209530414406301
9.900477944233636,-78.14724796990657,17.9978285118711,10.202687089072079
9.746255797911397,-62.09703881005682,15.369161069820523,17.389940734422307
10.31056368213444,-30.70396922819793,9.736632632980104,24.838590339518912
11.053320521704467,4.080452703376406,3.1867623038984316,29.512628457344988
10.096277344164852,28.412041042363697,-1.9749947116242577,28.355061941347405
5.87851091880214,37.0269276669405,-4.973953630232353,20.22054891924199
-1.1704186727319528,35.639629579210606,-6.6909244487706445,7.622875822749175
-8.436948778126908,33.5256941581536,-8.188829299442203,-3.8883515853822828
-12.77340960036254,34.81428329893509,-9.473449826610327,-9.350791842057514
-12.76643903757102,36.90790557973761,-9.785816742175761,-8.111918112095568
-9.634858458986772,35.48607517943151,-8.734897353135239,-3.907194874537336
-5.893454321318095,29.410132926063465,-6.803748422307852,-1.2443914424804565
-3.1339715995014705,21.118620996693036,-4.839684420860453,-1.8704482922248042
-1.1519037871460924,13.577496436115869,-3.295054263608688,-4.40243688987758
0.9633428837336261,7.4020388384948435,-1.9712510579694713,-6.489346376019072
3.344052335482987,0.8344405915297576,-0.38631753209829695,-6.9253360041883365
5.171494083107764,-7.44764716995706,1.582577130417141,-6.215934683656173
5.724523817582001,-15.598473705855714,3.3513106976747857,-5.704055160786963
5.262593542359227,-19.04950710856796,3.962142839443993,-6.074415520643091
4.842547514608835,-13.553834638795957,2.756196157215586,-6.50394626893773
5.340735433608678,2.6704825483637857,-0.39368408349317674,-5.5795760234179665
6.512409536430349,28.70236933098828,-5.333257743903337,-3.3331937384931574
6.84929743309834,59.81982729314324,-11.482592527308187,-1.919656288215455
4.549276005454245,85.07270694030716,-17.04540300538764,-3.630304128968764
-0.9746854659435836,88.69137999982394,-18.880304202691526,-8.341058234209799
-8.336953137845626,59.2717605249509,-14.271615330550881,-13.494740775633735
-14.905243198363829,1.2987784347746352,-3.580272469831906,-16.564850928280602
-18.253395011569992,-62.49073492421578,8.930974149665305,-16.915680472723437
-17.07271439213189,-103.16970998672852,17.49064377841733,-15.188938275545729
-11.388756834036126,-104.27133730323078,18.718920061206383,-11.752834038638579
-2.8000299854539055,-72.38516132496075,13.766602518798512,-6.517546490643883
5.390201103712298,-31.0805105019975,6.963945450715887,-0.056622310553897805
9.308504786270484,-2.995257395925337,2.266902478666883,5.777037462705141
7.054185481781136,5.566709355734043,0.5161071724904591,8.689572294993129
0.6123287799205525,5.480001848651737,-0.35755437395148704,7.5337206768165075
-5.1132649969028225,11.363765135242547,-2.623935330958693,3.410516025774416
-5.80474259108964,26.284000645359484,-6.101611420579883,-0.6179839539294473
-0.8866238923289126,38.39290636214363,-8.030552987307663,-1.4052658443018662
6.23931174449289,32.346843603185654,-5.630492397893887,1.9391201504260904
10.874237954424009,4.716278495991788,1.037019233205722,7.378533192242415
10.41902769170181,-30.94567843104544,8.62623607455685,11.852016928140086
6.01714051378804,-53.85563475293851,12.920638607207323,13.850129113012771
1.351049486833238,-51.68013905360807,11.9191967990662,13.963631521061973
-0.4053248515446164,-28.963035391768535,7.030913457336023,13.285639560290264
1.0259634493453011,-2.390605676033298,1.6991710541509741,12.053402736210323
3.268165589550882,12.191514888361029,-1.1722500633433965,10.009856725597386
3.6948874484085823,10.528586939908397,-1.0180713137894377,7.400967769555609
1.6289835491661577,0.7213960558763741,0.5126093133309457,5.095061558042244
-1.391839686770599,-5.40451263887851,1.2860018484856386,3.9719620810791865
-2.9265701925591534,-2.302368301961982,0.5134281924532115,4.467646195918859
-1.2156537325444885,6.043148798785489,-0.8042251831098839,6.326274663040617
3.6750040005039217,10.782400019588463,-0.9875606618772277,8.33642187884016
9.436682902617482,5.662390919674458,0.7772869792335341,8.5741673139572
12.37259451667662,-7.835229644990594,3.5994834251826884,5.506605478932966
9.644361620129452,-19.78594170790473,5.10518533361985,-0.9995848649038515
1.550469276299783,-16.575933814081992,2.6672031788818433,-9.831288602078152
-8.1868505153033,9.357028559936673,-4.651539909851549,-19.397310433571835
-14.677424662730413,50.74943899174337,-14.609185410244454,-27.818216144090417
-15.021938003515121,87.12977625693505,-22.492862793349154,-32.855483387225526
-10.059252519567371,98.88617632411315,-24.269646264419745,-32.810665121901664
-3.5475844802626133,82.4526135637255,-19.700062334810028,-27.966157355382293
0.6117800774471192,52.16881264230715,-12.372827248253612,-20.543439000299482
1.168709643530824,27.316019100878044,-6.5487078282088556,-12.681631229644085
0.18380868228773542,17.34439511825523,-3.923404149927639,-4.697824807325228
0.8717075159852085,18.025002653161614,-3.168264520093309,4.264281509121202
4.412291443162811,18.62178787843297,-1.9726767408806427,14.056546151228446
8.647440221967967,10.904802048003006,0.8624177101637199,22.371820999602498
9.85670290869173,-7.058885521491597,4.963956480075334,25.765423123316584
5.878456498515404,-32.16460558601405,9.230996156502242,21.95039043239953
-2.14151556108997,-58.8419137665386,12.760942895048325,11.906500162234567
-10.437754526696814,-80.70401985926419,15.157499008508742,0.5120588568899895
-14.820207684190756,-91.74520120804816,16.330945937595992,-5.390772930760199
-12.94180033679391,-88.32837052867261,16.248950925220832,-1.157116886459767
-5.581850078042642,-71.72752181902923,14.975936057769294,12.116097408278414
3.769810510536863,-48.99723056587586,12.931744804456873,27.93698194889818
10.953626170012196,-29.997200910257654,10.918681015402584,38.64769825092646
13.374101601429434,-21.577294249393198,9.619419308902563,39.917432752032994
10.69601294905346,-23.397483733121717,8.962273247322168,32.17033218960846
3.979200884698257,-29.025283676437397,8.094489559173322,18.9926162610121
-5.075491949555042,-30.88006383511798,6.079612336349741,4.758057345081846
-13.858317522777089,-24.317659706378205,2.6178303009034134,-6.9414401539749715
-18.81600655084407,-8.635820503910479,-1.8038602642295898,-13.940483550683043
-17.1180453040366,13.166562480788965,-6.177898932134344,-15.653194817329208
-9.109408608986485,34.490550315009386,-9.299214524766949,-13.10553585564793
1.0884281143923904,47.00787239229536,-10.216252300994139,-8.910714737680452
7.999873924534997,45.62440220494795,-8.88453895082511,-6.623299473290365
8.429548824816887,32.94586874734114,-6.463016906288737,-8.896003553112372
3.3744037105439944,18.028815947815332,-4.638506139280835,-15.393805958197815
-3.1248794594594687,9.733528668166992,-4.414488713766554,-22.77303604491047
-7.0786814592857175,10.909311102215595,-5.560148354236831,-27.46790636221108
-7.131824260209503,18.2917355009163,-7.171121131165169,-28.636678849901557
-4.720891124526657,26.87128025149379,-8.562201279727036,-28.011882731172996
-1.9882347022462876,34.19382754177526,-9.626760057966136,-27.032728983705173
0.3341914381246376,41.335017608950366,-10.60279864167224,-24.926168190535012
3.0208104684688992,49.98908359682461,-11.583789851450968,-19.965465883944113
6.795558594068039,57.976085942004985,-12.03215954350387,-12.07836115795931
11.312343747781512,57.863281672208785,-10.697058105506729,-3.6571298749587022
15.76671873325958,41.8299197940463,-6.379029406246041,2.0844278724096683
19.822637790524368,9.481194477827682,0.7971740169886818,3.3316867809946777
23.243820547595405,-29.137348345029544,8.815057121990511,0.660810556450958
24.75567121815909,-59.01256862023937,14.683963169311117,-3.5658370187585033
22.06115279462771,-69.41991625496044,16.177994463924716,-6.776688930562898
13.62727904396658,-59.38692591833835,13.034867727383437,-7.616017466897324
0.668514468536462,-36.420270582065484,6.928798149480802,-6.065002213751105
-12.651926446799584,-10.905710651730722,0.46121819065992575,-2.299219132583001
-21.27681630222303,9.826049751490999,-4.229555436717692,4.037092236230866
-22.298506113921515,24.308551941276455,-6.500741543957874,12.831555885548172
-16.889409503155644,34.68058022995116,-7.115284884952158,22.030308033668828
-9.487553695558036,41.23543641792559,-6.987410561463494,28.17214950117615
-4.5182603871827345,39.54061134670784,-5.955171919045855,29.070310042392542
-3.2099285006900145,24.114695714864073,-2.9556576434303596,25.83229188779201
-3.3232274044014587,-4.661826698307087,2.5226706070465656,21.949153349855703
-1.9571698655741077,-37.97113708055042,9.313614010716334,20.4088467278364
1.4123371494840047,-63.27352250094025,14.960778604449956,21.495613299799203
4.532955789898071,-71.55707106340455,17.136875484612553,22.74697575485191
4.654546123792118,-61.0050228827278,14.83280363688512,20.793306657860448
1.1287969336735144,-36.17371041256353,8.747846671263456,14.010649954529057
-3.8039632312410188,-5.600550201103389,1.063562366872894,4.330801763493705
-6.388791979198017,20.66598493679998,-5.304345966872347,-3.630974662303278
-3.859395084145255,34.220599320409875,-7.975398061145289,-6.154449883924452
3.47717356112608,31.472802440911195,-6.302689610610617,-3.7335904634833827
12.037736371875534,14.642296591129156,-1.5705867611254913,-0.7534234193594277
17.0821383383717,-9.696735089834522,3.907364349169263,-1.6400830624351261
15.77549491111071,-32.523067232102846,7.8843679645426,-7.155723057062208
8.871780751702065,-44.21329816005507,8.794542922957422,-14.022834503073838
-0.10136091790146394,-37.85062041735848,6.08155160707794,-17.62195875639071
-7.190924582864545,-13.253440588289834,0.4359393089115877,-15.24502686058671
-10.172390343796161,22.147025110744952,-6.443548456024593,-7.798216477345592
-9.511032370520326,56.998775587411956,-12.66443829651612,0.7804008333661187
-7.869880783934214,80.55107271690738,-16.774415457924242,6.003318010053668
-8.233430588591839,84.70965569717795,-17.688013630348234,5.7284093903215645
-11.494756184109633,65.50885131119233,-14.576935767981318,1.4195578697269207
-15.3379654362531,26.537561030023777,-7.544800840661017,-3.1339349781357115
-15.792197421250652,-18.76412371004036,1.4768479779498016,-4.4736938342088965
-10.598520612896616,-51.42851358398983,9.002988349814657,-1.6000851989419485
-1.653839874097846,-57.25533214571298,11.727551056280126,3.370532614074706
5.668103414444322,-35.43296890491478,8.441141982112148,6.139434410033925
6.061346788818233,1.117041314915824,0.7595210917467209,2.7232498357323216
-1.786148271694616,33.42516686110267,-7.678538448144229,-7.460045679135867
-13.793066963362048,46.991108066580566,-13.068521213370888,-20.40381293213244
-22.89481280075835,39.183620649742025,-13.459249040873804,-29.973495862613586
-23.74204900878505,19.19325250245485,-9.708352263885098,-32.23792119881804
-16.139520882043087,0.23127917795653863,-4.516013341914061,-27.6577309614532
-4.484362874189608,-10.436013846704029,-0.1842125721376885,-19.438825894978084
6.083392425256301,-15.441229010196608,2.933573562843759,-10.461905102278735
13.204182978215435,-22.2229763771477,5.947336476273189,-1.9686549345049142
17.594023054199813,-34.53266726002228,9.669303800899002,5.631996404140165
20.679148828350623,-48.98736612861633,13.522908160056495,11.632318652589289
22.489747760893337,-59.02277532949653,16.065131714367066,14.771208818250921
21.783024956944455,-60.942987847025016,16.283129707926097,13.823766809019896
17.802190412415175,-55.85712844444932,14.306686617385406,8.757105004401868
11.68428753213135,-46.73467449514858,11.078143765294918,1.7917714374580482
6.094544704658747,-34.751906079720406,7.519282838252856,-3.114619915867479
3.271240297835389,-19.06399115258021,4.000183126462055,-2.9920204268809627
3.1762031923107292,-0.16578301680036217,0.545131484895164,1.367498880965791
3.681214484327872,17.199613943925716,-2.521134572765549,5.774235959716656
2.932345355818932,26.09639418372246,-4.373295956547689,6.280642584818178
1.548264608690324,23.84961560969323,-4.422354532680277,2.557847409635722
2.069407850591553,15.989488328518492,-3.1861125348987054,-2.130256368445052
5.947701877063788,11.65317392613199,-1.9850417608455144,-3.825939426029788
11.245789820404068,14.0808037695271,-1.5602173177267966,-0.8298158221152168
13.63059364815566,17.245204603425698,-1.3588899125096243,5.2887339521825725
9.866559956778657,13.761780318797166,-0.6038243154432094,10.909530051728034
0.6651928536041083,5.554236406466676,0.13187658210507508,13.04901676038903
-9.425973100116806,4.328368142765527,-0.9640202176389476,11.807242292081368
-14.872242751750514,19.968439528848265,-4.9314896370215555,10.405174021455043
-12.683689770190844,48.540062579943175,-10.293464349433195,12.308887669896183
-4.306425631007467,72.40890784362072,-13.611542163574262,17.900978139414384
5.411641509219821,73.28777902700058,-12.063037691886409,23.879354037500956
11.512060033352851,47.17714490084476,-5.8420258871329755,25.809406686627767
12.030145021128787,8.28258624686976,1.714274183534372,21.333441357597668
8.609483690770595,-21.874831088501086,6.543111718385698,11.62693013959557
4.584323165009638,-30.803330306264275,6.874013695925301,0.6608254877420316
2.517066720946347,-22.03299589531441,4.1456717124432165,-7.03639544419579
2.9154564834461274,-7.2023309295935265,0.9931406146763903,-9.139945188173384
4.334159810893378,6.7322575546723105,-1.479455597072368,-7.108954539472249
4.472332043567773,21.015344949884536,-4.152347817730142,-4.780253608243897
2.0112114560671253,37.602343139570664,-7.799743104785814,-4.546762293402747
-1.772492470521424,52.03453126887375,-11.208482288248769,-4.726353319521789
-3.4292968101146193,55.84582333607124,-11.868042604100639,-1.2195595154274832
-0.316385996031037,44.94388262474043,-8.459514016172335,7.8026795904265365
6.269369455660486,24.115859931628147,-2.434994186290624,18.777995314918094
11.122553873725753,3.5506969436280262,2.8371390576982884,24.356164456269283
8.823319048591426,-8.606223846951412,4.500612533690025,18.55315768970547
-2.002480952673978,-11.687562132024567,2.2553368232641513,1.4051195562727243
-17.456173536100337,-12.652530487120078,-1.411986200072016,-20.47175757354164
-31.021227150436786,-20.875902976629305,-2.9898405713473855,-38.085090033168576
-37.90354670047704,-40.6203955070216,-0.5430410195708079,-46.07439950556421
-37.878646541068264,-66.69542137592528,4.7847997119499945,-45.73676989218205
-34.73255673504269,-87.46358816348109,9.673643766340195,-42.55034683130955
-32.86115515951014,-93.37544494670202,11.265186281541874,-40.749803216475236
-33.75936722411022,-83.82919311689606,9.265772380019712,-40.211728003734954
-35.264860074440385,-66.56740391231543,5.771402295759018,-38.0591002418391
-34.02029957148992,-51.02648056024769,3.2797338465243695,-32.39198053689399
-28.706708591216817,-42.15152907453263,2.8702373345535785,-24.15948402099316
-21.08225106273654,-39.04743792140329,3.9005195423191052,-16.084497214867675
-14.164998334115959,-37.26468176373858,4.895930755101187,-10.409989395279457
-9.491842287278072,-31.36293814010079,4.545458828412051,-7.34266367991643
-5.911274605759933,-16.61443774408926,2.2029652439699836,-4.965250700317112
-0.9074357023798518,9.0631701626524,-2.019847866598417,-0.7619175117014465
6.573461905634818,42.45985963707872,-7.278068736881614,5.980720402385763
14.238293261269476,73.53591239046769,-12.021754608442349,12.954598583735
17.672396774634457,88.0917247903678,-14.241135932505248,16.460212658680398
14.272540791206625,75.63856324897391,-12.28709789493745,14.697608361720556
6.388866967706008,38.188531109539625,-6.120064072050482,9.450127348929866
0.20849645482335405,-7.852795436996526,2.033392596311863,4.5788380720273425
1.0107242437333772,-40.50123554403248,8.632719906416295,3.165230586986157
9.285572302224379,-45.931302263740655,11.00293885753408,6.0100557892446025
21.15087987845726,-26.254035850056503,9.005531261364208,12.084215476201363
31.860533004428184,4.12051216142953,4.835960843756259,19.719731805915778
38.664764004335936,29.357728930194217,1.2478677871921948,27.52627537236778
41.2363105959003,42.1145350682795,-0.37354585036580973,34.77550449414667
40.82356112419284,46.822619385259046,-0.8007985020645486,41.18840132687127
39.55165903143682,54.57283188254673,-2.0618535510720446,46.37014392690013
39.7600225053559,71.96895265428479,-5.2717421576340495,49.656781574199684
42.8680176578099,91.7115309822352,-8.805192539459505,50.71390059767411
48.30966744867192,94.51042572842486,-8.769827138292527,50.03778252295197
53.57115122285256,64.0255757181804,-2.0789252618622784,48.47094351932589
55.511656540451945,3.5257396416894804,10.246912585073941,46.30962762678333
52.14828083471749,-61.35902218870372,22.73566803203355,43.267712187627446
43.87260625963444,-98.45553419481465,28.89391143149772,39.24802117995146
33.3695721509079,-91.56762924377611,25.7973769617174,34.65203007197266
24.089664251862754,-51.483677457350524,16.08779169586541,29.809240904103227
18.079957170726797,-6.756240121824672,5.792850494206915,24.50135022325283
14.673126934472153,17.87866854980194,-0.19970696318982245,18.13944647691246
10.983192377773852,18.007008358290076,-1.419239314926068,9.914459651806458
3.760520305312452,8.510398264529977,-1.387863941668424,-1.320650801739531
-8.587767021192393,7.5487120100958975,-4.057478052411579,-16.34234396543316
-24.738084347559226,20.350201325579974,-10.196895299678218,-33.69929594283034
-40.58560353548304,36.56461651780813,-16.79401557400177,-48.86058089324658
-51.24162233379735,41.70441804745545,-19.840368446090043,-56.62445391870393
-54.28392314769868,30.418710515599216,-17.818532543140304,-55.49497374014441
-51.9470887006136,9.335154703126827,-12.74018765682942,-49.82449963003336
-49.903795881691416,-11.0298928676128,-8.119507939700798,-47.20954120406774
-53.01911496694334,-25.475727871732015,-6.092774397799362,-53.0324523752955
-61.490143235272505,-35.830869500850945,-6.231061973178227,-66.38810086299506
-70.70030620813995,-45.59917307063125,-6.629172281027918,-80.30168385963705
-74.84768549004575,-54.2654095729096,-5.900081053565238,-86.10328325525775
-71.25943073560445,-56.93874385727733,-4.289940695105368,-79.13751472971481
-62.03442603693959,-49.59608734225575,-3.0910640208916607,-61.83038344754548
-51.98645623925736,-34.88493130815518,-3.0336344377314517,-41.708983322696675
-44.71372355554298,-21.97112992641052,-3.3468623679224927,-25.979392114296164
-40.04704912434174,-18.836789912639617,-2.625077013070132,-17.251643794898406
-34.99174757790622,-23.771886644908587,-0.6701028765353918,-13.537177808570906
-27.118567742337188,-25.411207795683467,0.8293488958841451,-11.268458937122189
-16.98910751366143,-12.663411394305546,-0.21552417379743397,-7.878564821829354
-7.311567617278966,14.695185747712971,-4.0876979366089135,-2.3348004821416826
-0.04708740268119332,44.84234024478263,-8.622617362701519,5.4039008706740965
5.408851809881968,62.6998561075016,-10.728577784933215,14.854306432501684
11.458105702066229,60.52380268794408,-8.604773539885773,25.297432493790144
20.125369326202705,42.28024308211354,-2.88722663629169,35.86875442401254
31.41666111170507,19.86959242226221,3.885511979697218,45.20608774523659
43.10079444730187,4.70026322706598,8.934725554649711,51.20771239108644
51.80915010338207,0.4619733985432278,10.928147464241137,51.97318573987726
54.90636129997429,2.1131957231327365,10.576317045076767,47.600153650593356
52.11560505649103,1.683313486194379,9.714047388792137,40.85998872761994
45.748219672697736,-4.2396871823806555,9.665384125243188,35.61668665898787
39.355996632742595,-11.975704552073436,10.338936928840267,34.328222603186994
35.92718714311181,-14.88445757930007,10.730148561732921,36.7584117336072
36.78298353352531,-9.64639942311707,10.108135297296165,40.49021188144589
41.23068198932075,0.9053953983716829,8.686839180056918,42.45977487124968
46.585394510048665,9.910382866212187,7.355356685093017,40.71907735853012
48.893883500171476,11.00543222201563,6.95656785474212,35.64241178360058
44.87060138461099,2.0589779339432512,7.723670856833014,29.463826484489985
34.18751947259211,-13.555510725305739,9.097117613495941,24.01577488554594
20.111093118009123,-28.58389446724817,9.951650214325314,18.729353297338186
7.565688705655479,-35.94116844174951,9.239425863930133,11.269991086055562
0.053269835052744005,-33.15642815790619,6.7664863850886485,0.30841957510364754
-2.221460009660582,-24.066524818784497,3.471276765122239,-12.667031609741525
-1.9287101273357874,-15.997029649995817,0.8125055406801114,-24.362026420688704
-2.5485602640029024,-14.049131204356422,-0.35724431782719135,-32.09744720640448
-6.1064611736518355,-16.585780189930173,-0.559032293257033,-35.222775027293174
-12.0344995628196,-15.657108761910655,-1.4402156650992186,-34.87393355862811
-17.799944904374165,-3.0987617068411737,-4.51393015466093,-32.87604361314633
-20.775809876649713,21.41171494345529,-9.637499891653572,-30.47764177392514
-19.896965085659257,47.1976557018077,-14.49797251545556,-27.512192436554265
-16.008001952525476,58.89997622894861,-15.978654872008072,-22.85755856555821
-11.123751448979972,48.633682289491176,-12.68983198320683,-16.1277980112041
-7.448303128926731,23.44293871554467,-6.463078599880167,-8.785569338750973
-6.456957376058834,0.5480543892505426,-1.181318420037428,-3.1151431929973548
-8.04649962058046,-5.7701417045339145,0.17651648902380188,-0.1346533105067647
-10.396142603595932,5.950576137011522,-2.3858258211627423,1.0221682677706645
-11.277484197960938,25.488573620649955,-6.40140789352416,1.6766216917840875
-10.072308960940065,40.63391760498342,-9.288999886691787,2.12317217821436
-8.470078154513844,46.64339385853375,-10.345299190164667,1.7705409915480985
-8.911341178292439,48.00422252927434,-10.806791925263266,0.31668998861032555
-12.29025228768937,51.39802969403857,-12.075706753818338,-1.533623006648457
-17.160163306692763,56.048470449107704,-13.687142600764377,-2.3346061594026333
-20.953621497232255,51.00484392134165,-12.992288981606906,-0.848828735376974
-21.86261865880458,23.873176140655854,-7.269789480185226,2.7466742973220977
-19.86775605583515,-25.505130856251153,3.317382571866155,6.264317364939686
-16.365752940418098,-79.31251966954913,14.70521056582136,6.651019827184045
-12.789415119178775,-110.89474161628978,21.18708734729947,2.581576837761549
-9.331976662485097,-102.64798590131649,19.351953840752582,-3.8748852657965926
-5.042871782921109,-58.86528116435155,10.56395065677258,-8.550564415023485
0.5821650912823988,-3.7746321566617826,0.07467355802373422,-8.447655581010999
6.168009023631972,33.83564167302416,-6.472304016956172,-3.939044024962873
9.029532084615415,38.5134030537743,-6.554966619087762,1.7924998475122396
7.485357733799837,16.12515765393924,-1.8965464815789677,5.1291009831094785
2.6260216383951023,-13.07332003225688,3.368329605006084,4.353452175727273
-2.244979067351301,-30.061168035470793,5.895574250120588,0.7324511224836356
-3.9829168373008477,-29.122378740921924,5.217679592925381,-2.312726133485663
-1.8357701893016891,-18.319084435272135,3.328326228221198,-1.8489187507932137
2.0103178496448213,-10.402503035208353,2.531852772375445,1.9284918622197602
3.9484698511972836,-12.815392070803494,3.5989498875210284,5.698369944035715
1.7309648213622908,-23.936551292425904,5.619109787655349,6.063566062484311
-3.3953609743845496,-36.41704471705961,7.220188858983966,2.6662874856127243
-7.247847998682951,-43.45126826347563,7.774812618006089,-1.7967377277633614
-6.042012003623476,-43.01608394604722,7.604353296805911,-4.337027195916017
0.26079100871373456,-37.52570643893868,7.2785587099853855,-4.125793195754468
7.793496768597217,-29.939364269041835,6.800346833420005,-2.5534216906539773
12.008756455608545,-20.308597104019785,5.452316380196072,-1.5289917722384492
11.23304096926349,-6.6605221472045795,2.5650981450880863,-1.7652857829308402
7.502793434213726,10.396838529850173,-1.3943847873460304,-2.213471572719773
4.416067456717792,25.096918312188656,-4.65096514028085,-1.048538219630479
4.10928859412623,30.49263777088954,-5.479587476519219,2.322413567656101
5.73518999887702,25.725384763803625,-3.979165023069494,6.0195827899415235
6.5485278134250855,18.54369408149697,-2.3412827270437,6.909370268058795
4.788897900631999,20.023790222432947,-3.163434805207808,3.513151955779942
1.8484862282094854,36.59060537290818,-7.416930521931027,-2.362273599320754
1.3422188337383436,65.46676115231472,-13.763037686427655,-7.026691991290427
5.452225693388209,94.86412535528677,-19.299370228853054,-7.796308749454094
11.991885684209523,108.0911637816291,-20.900919368183906,-4.637484928581852
15.429487932523422,91.74453584914392,-16.71861853801338,0.272067721895702
11.379641108070754,45.678404637681325,-7.52119790599701,4.023757700472861
0.6841240469606028,-12.701185488782595,3.0737866832553298,4.555260650791207
-10.462015466716393,-56.05116681029271,10.274372355408502,1.9005791840857957
-14.56799342791291,-63.243690299103996,10.911333368501445,-1.663686538593532
-8.16850867823479,-32.736577579990566,5.360896424059769,-3.191258560533084
5.396047217574284,16.097939988840356,-2.7321238232743097,-1.3589518234313291
17.90935649530331,54.25114270743208,-8.59456041201882,2.5801241253492333
21.78831459584711,59.99876148476144,-8.986384625987677,5.917291305688491
15.143200457059669,31.36332387619482,-3.9429966980279008,6.3705084463536314
2.5151005341746617,-14.042674772776245,3.4544351951792045,3.2774682601130203
-8.942976500367216,-52.120321810187285,9.302191952689222,-2.0817021721302154
-14.279030039433756,-68.68095521584738,11.583497217855738,-6.836552530843946
-12.847970576464247,-66.43455062094021,11.211174070587262,-7.844470937826608
-7.186251358875006,-58.18385873290677,10.59866184402334,-3.734675670210086
-0.7331455535141709,-53.9549582218999,11.215305737143384,3.8733080362056036
3.7833746886812425,-53.78325696402706,12.400536327030505,11.274945472931233
5.027464928936623,-50.87962486492055,12.295662549500552,14.959384512947349
3.153398266441267,-40.17580575408629,9.749036137230886,13.36047914704986
-0.5525841415323619,-23.78544253034,5.416414200019942,7.247666104305221
-4.353731071416899,-9.013419909936212,1.2267360736313875,-0.792240448175529
-6.759302872450891,-1.3972776788937296,-1.2165314779406107,-7.470092682043945
-7.067446023675612,0.4909272281200922,-1.906460955910186,-10.447912166455986
-5.675473036438678,3.2279782741678047,-2.21795851041415,-9.626188120389497
-3.8335271771891115,11.066136803621022,-3.3286273583122865,-6.7934567443410385
-2.6810526836647837,20.429193948964674,-4.828754963599567,-3.912226107394167
-2.3105743293648677,22.931288605814842,-5.10692260035146,-1.8679210381951221
-1.9567722525803162,14.664462446205517,-3.276961013294232,-0.6693346310250881
-1.1885307033998351,1.996023540364145,-0.5634524882074637,-0.1439026031355861
-0.5917351835173966,-2.9750472546577207,0.5267138630593283,-0.05605477088795148
-0.9849759433948954,6.720212889008662,-1.4862728070668447,-0.01632034286476179
-2.16403652194404,26.565145995197053,-5.642007848250855,0.17895365020639498
-2.820741348744857,44.881018196554834,-9.4293606445043,0.30902893921710106
-1.7357399052959626,53.34916450291503,-11.01896369061473,0.2785263029407428
1.1647843784033876,53.51774262146681,-10.657086518008514,0.7413985955646799
4.83557789363506,53.132266609368536,-9.960107512658999,2.627433396033653
7.807350471340871,55.9067793094505,-9.85924913531906,5.962763234550964
8.842026512809051,55.28504551431508,-9.284326106486771,9.531835026351814
7.409565691398149,39.85650087967641,-6.121918023008423,11.799247287582675
3.9291807484109382,6.473494307503269,0.24089317477508582,11.907955309828358
-0.5193289971239823,-32.21675679699447,7.368369886804107,9.860959594119166
-4.870252994938959,-55.01851988147465,11.143077722683842,6.278372090174274
-8.40361093318273,-48.69216845906106,9.059312211218092,2.2071218803432795
-10.500971290745948,-18.581594991678294,2.374444385164237,-1.2808802666389523
-10.567167131910905,15.954647606445176,-4.866724343527922,-3.72593478775644
-8.61577166867675,36.42088434334445,-8.932357124010803,-5.370484394715986
-5.766484392905767,37.42997805504129,-8.882744531260116,-6.406419496335927
-3.662473259685917,27.23735868157849,-6.55600539666338,-6.404153976921728
-3.1453495864803753,17.79223659509833,-4.4295742532102444,-4.792772574263968
-3.5755110949168376,13.676331856118438,-3.3651211481698127,-1.6777013244495942
-3.5455184131624087,9.466810965009193,-2.163780554901226,2.1203002078002613
-2.3274625275827434,-2.9615422220640193,0.816063016066874,5.52644717599677
-0.7723983180119576,-25.049574243800805,5.6477836616822,7.264822422605369
-0.789869128903839,-49.44047413916296,10.472278087350475,5.872456793327417
-3.52393647380802,-66.46522022886384,13.129852360164792,0.721109485495302
-7.600969924259973,-71.81111821569976,13.059938276156405,-6.558097945718094
-9.421417541133268,-67.93521239799391,11.530069326648073,-12.322343088000858
-6.017084422894013,-59.510479091377924,10.139202915854469,-13.387041143690798
1.8648762388854976,-49.152171053574946,9.348594531828413,-9.513908631190743
9.773036574389725,-37.674529699949204,8.523715146235634,-3.538960217574211
13.147396108521672,-26.973572923116137,7.152087676490516,0.767918767215292
11.158138766947763,-20.999583718406747,5.73543184692888,1.2031724195602687
7.1092561738275,-23.107617616688287,5.414613542809349,-1.6124079990691127
5.234658136643844,-32.022519232667,6.7029679951041565,-4.854310809666301
7.018355565608814,-40.079885660312016,8.470271952467828,-5.8128493308366
10.147512736522339,-36.32394486010389,8.217417550612359,-4.400686458577869
10.720607597941129,-14.018274260270735,3.850482193895441,-3.3815081776995046
6.887905744360016,22.331362107129355,-4.18873997496672,-5.4918051939203885
1.0338442436171225,57.45957935154945,-12.451916236827225,-10.094145071656252
-1.6246559100935851,75.29876221576943,-16.666213763866867,-13.055978176055278
2.5578773627028637,70.81145337394538,-14.995937649827614,-10.306793646824845
11.863046715702449,52.72373269814197,-9.407101348399465,-1.6732957929980015
19.77773064073701,34.6685140132709,-3.8561346021719993,8.49483221190263
19.885888633899,23.778026651233723,-1.1130180489759067,14.238677397057883
10.89679069812821,17.250853949453486,-1.080494151693535,12.082375862326042
-2.44345073167929,8.244120843799887,-1.6552184218728387,3.5121172695935767
-12.925270565965372,-6.069531756684538,-0.8756930002060885,-5.860317802826189
-15.718409884661408,-21.492152478261875,1.5275198148538498,-10.146218709194672
-11.006731167225498,-30.472085904727813,4.180187205054941,-7.335398608030176
-3.132720218588287,-28.7366884436969,5.420692331325091,-0.3474469681306304
2.6900783791837806,-18.821344134928985,4.673952901845164,5.800935109684569
3.7417765249110517,-6.7743435999972075,2.5405612485483977,7.84052682859941
1.0133410677723995,4.892069878856438,-0.34653374912420903,5.791373617657901
-2.292211838753696,19.977806216818273,-4.165818854824696,1.8881288257146769
-3.4412537439386073,43.04599609864203,-9.264901102109969,-1.1563610341477581
-1.8968066157840358,71.19527334246328,-14.813624844888691,-1.3990221621691987
0.7266239686930751,92.6472608861373,-18.60135831383214,1.3411988052478658
1.8697283279124859,94.76922307943614,-18.558217756725927,5.043784221032644
-0.3681901161674773,74.58520549094835,-14.587649735035594,6.657736462907025
-5.756098156103906,42.51957364279566,-8.92595400782767,4.54475325727724
-11.534328181847892,15.963905356458362,-4.657180382228633,-0.07637625487158926
-14.045137697832994,7.255379738350682,-3.569218461913589,-4.212767244134173
-11.649616837897376,15.112229910221389,-4.985195038799014,-5.4677676301453415
-6.331681406085772,26.52217772764128,-6.461605138902613,-3.356184348894331
-2.1646919087827956,27.896991347150834,-5.828748160415577,1.1064952397628431
-1.918934763993724,15.812366801169214,-2.8627027595999235,6.447932003547068
-4.950008509858551,-2.453680055963464,0.9254887208175404,11.42764193024431
-8.053557477670923,-18.27740997300065,4.104130425486603,15.246752793883482
-8.178385046142303,-30.489295180074738,6.764540718294955,17.418778777712497
-4.68599228212483,-44.630490152636675,10.074142607878663,17.54887866777815
0.3557466705101082,-64.92997815750073,14.63072977747046,15.545486500655098
3.8501210946273856,-88.6648730526738,19.583160720085896,12.294386976143183
3.988919181427464,-108.1671075923063,23.324608147002365,9.689055261979995
1.3453419627939343,-116.6065858427278,24.668209999428576,9.16812213623373
-2.0718150692391664,-111.1077687415599,23.212129300043898,10.02991145575693
-4.586398136775165,-91.9320248191355,18.99304961018852,9.825639470871653
-5.53970568083118,-61.32735310862101,12.399398620356843,6.911153878951524
-4.673844833636716,-24.600784692651217,4.637939330363306,2.3685215814191523
-1.7840282779108698,8.450537238774535,-2.0226692584491097,-0.9848686821568212
2.5077585697227427,25.70424156942602,-5.042200386261749,-1.4341122067814691
6.163638061817986,19.702684055089552,-3.255559202285728,-0.08862808091457103
6.871550478719346,-4.81746625665417,1.8170177538149348,-0.0056024977210988565
4.188309830102282,-30.425029280005827,6.353292641431124,-3.71928888189583
0.3381418699848676,-37.19533620186121,6.587425377757513,-11.141121323173067
-1.3505005583377583,-17.23196057424761,1.5906107472054507,-19.304224278361072
1.0795138373441961,19.295545418024307,-5.981097512790848,-24.308996406640453
6.8818362781829725,52.94210045100533,-12.095813956854379,-24.218651074321563
13.123706553479266,70.50829775088461,-14.562061694811206,-20.476165952495688
16.478191139915012,72.90621984854187,-14.274564930948994,-16.43846968538038
15.299934077388995,70.04421233730896,-13.659150310387606,-14.464709932268542
10.790976719440556,70.32597640986458,-14.26297069836142,-14.41852376649546
6.227965082375957,74.71425728476797,-15.72782843360398,-14.600918501987957
4.526050479464428,77.86270422870815,-16.476181051484026,-13.506754252248651
6.021420642985662,72.67950324264616,-14.986970638833148,-10.69241532707865
8.274206452016697,54.703866326835666,-10.711584811291461,-6.812098312822211
7.843693528376131,24.722795018738754,-4.376567153134497,-3.4876494245072487
2.5564737635838712,-11.060818587992173,2.3110544603769907,-2.7355772607280824
-7.008629544938923,-43.1564808057841,7.403563259191127,-5.568678736262953
-17.3954746252144,-62.01031088945448,9.497504941502175,-10.722294896206728
-23.806731438516913,-61.37363642515829,8.203373223972333,-14.949278526035373
-22.927206198392003,-41.56124096492084,4.294487851086597,-14.878238371355144
-15.294311534623882,-11.265815242157537,-0.3938860551324243,-9.003845535136687
-5.16934302042269,14.865008216760282,-3.526371585486292,1.3652970075780024
2.2116786381377898,23.710350614841907,-3.4159588991588636,12.492004420602479
3.8131405501736557,12.000521334363246,-0.17053893302143708,19.936041767552258
0.108664293341742,-11.274887339625408,4.210727446252857,21.130980347957745
-5.856828475117877,-31.280827630416653,7.182713454623371,17.129467902412326
-10.488045781295593,-38.13572404230138,7.525561708395478,11.777868449810711
-11.504377921812623,-33.58476453929294,6.209963043290208,8.816521179017752
-8.885987806161094,-28.01777283013054,5.4626643940291775,9.516254416238322
-4.487037114677425,-30.035594696108284,6.691095461440778,12.632284197221285
-0.5302580783330991,-37.299382882160245,8.945494045693167,15.912556432566236
1.9591811697934796,-37.364045454867096,9.407867592838999,17.519957046517927
3.6490095552996915,-19.31328563395198,5.88876695171483,16.850366120633012
6.133062827562931,13.478416243834086,-0.6485211253598598,14.827744087555306
10.57509785014708,42.27880427478245,-6.098674463192267,13.22105580472074
16.515283530160065,46.791567715023994,-6.318819794725881,12.894629245781163
21.473381552298218,22.294108598871137,-0.773653832272489,12.512824704207649
22.00110281117859,-15.678458701173824,6.723910594058222,9.44644828197742
16.130379406035583,-43.3306974879369,10.980170344422664,2.3462702398651847
5.554207685496474,-46.19070052692404,9.412387303966794,-7.1393161361318045
-4.733182368928025,-27.55875584399932,3.6541503550064425,-15.096419143846141
-9.638261788634155,-2.6624668683430315,-2.2370386192778975,-17.721394926370785
-7.471449472375269,14.785538085411803,-5.141280351389012,-13.582604680335852
-0.8163174691636663,22.305439287253776,-5.046929349472327,-4.63204202847117
5.657550206453308,27.534474740267846,-4.483201008498684,4.610634086032519
8.3957030243899,38.34598693234961,-5.882205785707222,9.723517644815342
6.963020707165221,53.63422945068482,-9.189041541357959,9.416956687415036
3.9095713780264925,63.341047628451044,-11.813540455971461,6.309345678560616
2.6808300462216548,57.502976019459716,-10.954495560033019,4.357783261725173
4.745720830803872,35.80820670400512,-6.222760616874251,5.183519393935772
8.08200660607507,9.334291796609088,-0.2961506038728207,6.775635994733935
8.705448714376889,-6.554587413554578,2.9024357185439347,5.627615089417831
4.331159957737498,-2.5232036924932837,1.0526210061914538,0.12450608301334204
-3.1629340108176938,18.15290145569255,-4.773914466239756,-7.771225129952806
-9.005343148602991,40.87518942132175,-10.647313586611645,-13.81940990910992
-9.553649933052428,48.48232005248514,-12.353107178955204,-14.863164240081447
-5.54308509991316,32.385064929937826,-8.311670624764176,-11.727868487599086
-1.8205871104460087,-1.2773044414536925,-0.772137768690895,-8.959796154453306
-3.7456573283971393,-35.062762502987546,5.6722622882149665,-10.956355804650293
-12.916884958303882,-51.3141140071365,7.246370215197818,-17.659358270811296
-25.419142383567582,-43.46900713913173,3.5440019217017675,-24.107693097583596
-34.122449149446616,-19.740904565073578,-2.381545383922857,-24.601888900202425
-33.53107859975415,3.489491127853741,-6.387348232313722,-17.529098193481254
-23.51489042883681,13.702146180270022,-6.237905374296449,-6.460433892129178
-9.130419846290973,10.455687244588887,-2.982108369609433,2.8364011899388384
2.961017576087577,3.444886311762714,0.235284079927373,6.3457940728926285
8.488069404091167,2.456642780663929,0.8891805185711048,3.888478187839172
7.416013602501323,8.084151809726325,-0.8522024722170268,-1.2919984685349835
3.1526807706829154,11.079110675677626,-2.2923721463995967,-4.739196764801806
0.06830305888608351,0.3952504531896816,-0.39221240700065657,-3.546998920331037
0.7564661994070041,-27.365498181293358,5.832933495035721,2.039800795820732
4.617513653017894,-64.67401985880132,14.538919335491247,9.339396905480097
8.779681318025029,-97.48522381031512,22.259086757816934,15.426855506181955
10.623082789604334,-113.06769708403571,25.946197868908115,18.727389550070313
9.67980891580769,-105.95910477122605,24.42060504964529,19.092487196895476
7.36800969105132,-79.15102190440373,18.526219706612494,17.22275766298609
5.259275627745718,-40.60004165468413,10.171671741752961,14.238188459764212
3.7739573579933348,1.9052507996739174,1.078606488762994,11.123168510367876
2.2875337756598038,42.92002078523865,-7.713435274767617,7.991767101319608
0.14742474404733474,76.76521174926891,-15.196056208560698,4.124493846106109
-2.4140810762171427,94.49998465729291,-19.5543508953151,-0.7979098230977801
-4.192173505669191,86.75427543349677,-18.631051668178447,-5.584053907142128
-3.951607704469424,52.19905338555382,-11.80982931404705,-8.0679741122209
-1.793723554011906,3.2496663511004935,-1.5019130397567315,-6.898885088289089
0.40513935443378957,-38.49679366481403,7.612839532452393,-2.8027170694570214
0.33656527229809957,-54.77063806342567,11.314617330688364,1.6920525447463104
-2.5921744443961146,-41.368834659416,8.413642120704653,3.662087093904823
-6.401825978949758,-9.749093034006608,1.334526350806953,1.5177512513724354
-7.865894886472107,20.485465093003075,-5.458727137508518,-3.748380417207618
-4.750706404473186,33.1220004613351,-8.101537440113798,-8.815769484184454
2.816198351260734,24.32908677317207,-5.518517176914952,-10.217978911700678
12.401630214829083,3.5466060000666473,0.161990846468572,-7.007474912084645
20.358948385995827,-14.598201915305339,5.3211227133082,-1.4375822704193637
23.61055061523426,-21.13274079484856,7.451363153861035,3.0613569540785472
21.50108417248914,-17.361072510551537,6.563690914610765,4.565295020017648
16.32937764693727,-10.206997177011328,4.388300960545473,3.55670510098199
11.635320188638891,-4.269613978297499,2.4515013593895487,1.8084399915211087
9.426135131895759,1.1812287740096536,0.9816809791443016,0.776182980796604
8.842263359833815,8.664680498822225,-0.6204351566823625,0.6505614483233962
7.394322090292678,17.884290491768606,-2.7031712583308796,0.2751190491849837
3.412847930249338,25.255570989184555,-4.890396041653634,-1.9861829534510744
-2.4634301647223675,27.29574323494346,-6.440965460407077,-6.620891016342433
-7.7271204973648135,24.218928677544266,-6.9304222230158485,-11.838935498258158
-9.842666658409433,20.789360435127385,-6.721993935901537,-14.380347998488311
-8.201617718997287,23.331640908643415,-6.811860727791834,-11.87917296415325
-4.766383689644041,33.98551612397877,-7.904406726003015,-4.669989119666721
-2.682790825721887,46.563072062100346,-9.385229342380631,4.393146624665351
-3.829510233737165,49.2651934884737,-9.427026213850858,11.557057988544752
-7.487977670593125,33.9369321562586,-6.541375735552605,13.996301121099322
-11.320687717508799,3.9347192699394893,-1.1714547717656592,11.188024294055008
-13.471781082119888,-27.14589229410988,4.342746114089227,5.278027486171123
-13.653984141854874,-44.676452389000175,7.383950573248461,-0.21426350531400126
-12.542545604711869,-41.73037415359178,6.690332627387566,-2.7746216592129485
-10.6028183159271,-21.175170151279232,2.8023229094926014,-2.236375069322846
-7.626372537446495,8.01241167948305,-2.540543395495627,0.19811242279181213
-3.211338026757182,35.80881999141832,-7.321311581219155,3.783227312867312
2.3472990550387953,54.382952970144586,-9.986271528105402,8.515707861835718
7.50753119106382,58.82846187611072,-9.780004279829338,13.815143333886727
9.984310273544565,46.88400724983591,-6.696021110136266,17.75986335023288
8.376540055110791,19.969031232773855,-1.3928510103906349,18.144222513515267
3.7073457405231127,-14.509250430616682,4.684657676930643,14.238959578883804
-0.8051291291407559,-43.35944656463041,9.385922527367498,7.535850544977845
-1.9720444335555227,-53.3807111256513,10.68902992096547,1.0124300727033488
0.9281128729894605,-39.725261266385814,7.94696410334809,-2.5722462835182083
5.506996888824816,-9.893622709385216,2.4498375142854747,-2.5655073359580403
7.822375440661007,20.166143881809248,-3.2484661024615846,-1.2117906726372285
5.028857577438044,34.904833272938276,-6.661885383499836,-2.0934819784709107
-2.427279874052582,27.26041425257993,-6.454824383886454,-6.9026990306543405
-10.520398979729878,1.776261765246801,-2.864163972290026,-13.492553160798812
-14.015878908957744,-28.59251460250004,2.5184534811723145,-17.440603720093836
-10.353705794205048,-49.99568224690637,7.458556927924726,-15.812418092741304
-1.9884009603376203,-54.756965158873946,10.00754405739846,-9.60657008622769
5.195387032254078,-43.83178159560936,9.26679991510616,-2.9622345018253844
6.302243932077675,-24.504336512504945,5.72449808098624,-0.22959801808394503
0.8704615727157509,-6.1433495362048856,1.0683062961400056,-3.16023030939863
-7.347869041961973,3.8000599112952,-2.552339682841924,-9.780526864945742
-13.438946467170457,2.8005410520371448,-3.6167958173809156,-15.576125844307581
-14.399749578962282,-5.892893293998873,-2.053547371024671,-16.512023551663912
-10.37303132298946,-15.988624694658597,0.9063817647876334,-11.880900102720641
-4.0180656500416845,-23.291524985615972,3.8225775288033033,-4.603950111646587
1.2025905052410573,-28.684768265980345,6.086074544432614,1.2732599536906684
2.9323935443792783,-35.30033565489978,7.842301474596084,3.506776863594865
1.0169370936121638,-42.39671000342638,8.964173328848846,2.565411157217258
-2.8640588927145085,-43.36072858288712,8.492519321512654,0.42466087130207136
-6.556314913797626,-31.734535968014878,5.536532528396055,-1.1740629303977015
-8.583754989073213,-9.758819828680993,0.7741002115618185,-1.7587014960519063
-8.47689305704279,10.361895488693111,-3.3293141238815056,-2.1034223828487635
-6.580010840741069,15.52613359253337,-4.2414021782671245,-3.1581318855219016
-3.6749734369329543,3.5722855428785225,-1.5857296718539302,-4.55689332383861
-0.4191431421512113,-12.974710116743113,2.2014619165192504,-4.227361308469521
3.123711055123899,-15.541464222209717,3.529849848135535,-0.08062721417022045
7.247022169409175,5.2980911561807655,0.48824319436262975,7.516184171272791
