TP9,AF7,AF8,TP10
0.9777463161581761,0.3880645945306404,-7.207154069524239,1.3403628726731036
4.504333025227638,-121.4564501149069,-63.7208720256148,-28.249248239097785
4.561159082691044,-193.71755124985256,-95.4975475034161,-47.44743693286739
0.1428845605690657,-201.91476360924105,-97.15127173372142,-53.08862216473317
-7.011822397698345,-171.17124471690195,-83.31726252285765,-50.30989482524888
-14.093759619765702,-139.4807370943857,-71.91989959635575,-47.030491546994725
-18.945750100686414,-127.34512655944955,-68.2566156361251,-47.33804007402572
-20.64397849888498,-129.40821776881631,-64.6646620790397,-49.47130915701475
-19.325043750396564,-128.44874096289468,-52.60033839288569,-49.013535641829904
-15.910704072677712,-113.4286681904303,-32.83775381293683,-43.337335035839466
-11.689273402457209,-86.93675622172107,-14.951133846456152,-33.52900310915464
-7.663948366659138,-61.1373051781013,-9.062210977927755,-23.258643427732515
-4.134701757346597,-48.38185960072416,-17.863254415610466,-16.22693292547314
-0.8884875524443829,-52.44638780605158,-34.30661431226452,-13.870252426166656
2.353802165799732,-65.70553441730289,-46.16463708106326,-14.550713427777568
5.7380003651272276,-75.15029402449406,-44.895708282994235,-14.886183535159022
9.256031049157293,-72.82578669059495,-32.47513233701064,-12.392917105717991
12.635359685696214,-61.00709017384195,-19.743923536908973,-7.213629430990014
15.307391116141646,-47.79152342421612,-16.78015933869715,-1.4898639346526308
16.699717472384346,-39.08814081997791,-24.09269151315029,2.6321737239773437
16.54670472543561,-34.99663567146107,-32.93421044010327,4.329001504981405
14.81850288618642,-31.516958008103543,-33.56020980260721,4.100980731735451
11.583833176400177,-23.84030096086264,-23.10244504796291,3.229112678206281
7.344996812045592,-9.441981824751005,-7.112406646964043,3.216140933735803
3.437866124963491,9.500912942915646,4.7734892245620495,5.0773608387977225
1.4837978426760545,27.00483746928941,5.711249730303106,8.726143022135313
1.971887854173018,38.678198054972405,-2.599082571153066,13.114741657505306
3.4968525092789933,46.36377155003141,-9.596376380722162,17.013816159555127
3.7455620952220614,55.655278855167616,-3.0740545531704364,19.509646424134296
1.3919773347538347,68.63080395836153,20.7710114240234,19.961135770259542
-2.8686726573699075,80.81795369015954,53.22320890665018,18.15906962109344
-6.874830688098505,85.705466416036,78.44941026988305,14.877617082097329
-8.46489110959628,80.5250146692427,83.3851479354974,11.811376295518249
-6.839640258763667,67.33733155651815,64.98472389192442,10.379055392797978
-3.1235294344707545,50.94673230535125,31.72574968537487,10.581209300594162
0.27691060078296664,37.149054642771674,-0.7082105087344345,11.257552097866288
1.314306686375424,30.61111551405743,-18.25973592393182,11.29425386922127
-0.21214247680201326,31.467151066425057,-17.101885797771878,10.320033531921146
-2.618477227750988,34.38484686243221,-4.90913664991772,8.544633351836547
-3.775702503634695,33.30080972097187,7.064212001740695,6.539408881436205
-2.716338774045965,27.617191522247627,13.653367989551777,5.206346196803041
-0.19655870596717784,22.77729674381941,18.035678401410383,5.372380108109993
1.911824309839876,24.93529927177646,25.921384560085453,7.063115536321706
1.8627948617437553,35.81868637307201,38.923419976205544,9.366206501320438
-0.7034914869886338,51.535957853298754,52.96218841919211,11.135398504147435
-4.253597502202263,64.14371253070085,61.38970439762036,11.624192391275693
-6.291637028716841,65.02362863389612,59.645619414777656,10.468982351017102
-5.316425092555283,50.40966335738474,48.717294303544065,7.617552994355502
-2.112690482581029,25.82224709209126,34.896340099077904,3.6867051480083015
0.9551540292147546,3.5199284352602076,24.788112766701325,0.07813428980548241
2.001425560096162,-6.765804219237615,19.368672197245804,-1.8121614888797564
1.0703529461297066,-4.976703060999241,13.782230694491094,-1.6039019283851201
-0.16829060392192985,1.295950043464477,4.070932452157866,-0.01935575976760809
0.09167649201252716,4.53365564063227,-6.863000182866169,1.8776089787020651
2.4250113762973555,2.290628092963835,-11.738130014395859,3.3009372046705874
5.797858896394902,-3.3114272912315816,-7.2197885259157,3.874214140034474
8.325468175416114,-8.372790789667713,1.6161908614052012,3.6781278845345353
8.635518444867975,-9.979286930654109,5.164597006504431,3.1948388834018417
6.783891724226998,-8.781699859934092,-3.4380815056256697,2.7397692228178547
3.931961391461984,-9.415407473174774,-24.05334217496959,1.805101887154165
1.207463528151319,-16.45676045876841,-49.488617011861386,-0.603834233436974
-0.9765382702029853,-29.063367546146303,-68.35103257646152,-4.700273107936824
-2.596766211669703,-40.94352181030825,-70.64158721870618,-9.282509297621974
-3.499806750014507,-46.39822083173751,-54.44998671285843,-12.677120705210916
-3.542202590997938,-45.28629491914165,-28.511950547744274,-14.141103209279681
-3.0254249058685136,-41.55806890546506,-6.887471877524737,-14.11646131399975
-2.5649146391382827,-38.45608655861288,0.8312993960591175,-13.375348922941326
-2.4828768559118837,-36.14443512301959,-4.127188934247364,-12.292328732895438
-2.5769090357293254,-32.628072486884776,-11.713928096589717,-10.806625672795947
-2.502460111646563,-25.698742105081152,-11.831982854142725,-8.69057173751751
-2.1512673010268077,-15.254417783086973,-3.499081162871585,-5.899156678414262
-1.653928379564753,-5.324667987080593,3.2132312166653287,-3.0400586605065225
-1.3118294582601773,-2.6157718364076232,-4.098061189322426,-1.4838614521072688
-1.6315495853383157,-10.539177866944161,-26.878095174235508,-2.524016520035309
-3.130063366777342,-24.43593463906139,-50.664924987321754,-6.152084882828891
-5.83194340986788,-34.438184469133475,-55.42742623572013,-10.824611032781291
-9.01670908434574,-33.713224768246974,-32.83320882123928,-14.54166418298486
-11.596817898572946,-23.40537216843353,5.779020507898697,-16.05345793705647
-12.722604956868361,-10.367630574893667,37.891336087901195,-15.22066567815278
-12.08279788393337,-1.9015883270576024,46.386360667706484,-12.808825596567912
-9.960446153582103,-2.087431301718531,30.30998017633184,-10.174495968298386
-7.262868303105616,-9.863683629549795,3.190102439033183,-8.604983773898523
-5.291835943600822,-18.840200547048347,-17.674074915152,-8.362641903731296
-5.04492853758938,-20.977398963754567,-22.690190290144507,-8.469040969865135
-6.545550988186086,-13.02078091862487,-14.630570880818132,-7.789783428155021
-8.860162425586104,0.7745628331497262,-3.626309291242467,-6.194215887594399
-10.643039393303336,13.273952007358101,2.969452073032035,-4.282774444205023
-10.559846377500618,20.977479498989823,6.586138100745175,-2.184484542094648
-7.563157456065709,24.918211739404605,13.92906860064192,0.7397381489415235
-1.4907419647258908,26.71523841481232,28.331535936325555,4.865132639370123
6.257266928806795,26.422900289589833,45.20797002248213,9.46517251708829
12.98448524435181,24.260094867433438,55.55437974638169,13.186294515310742
16.233436528356233,22.046108557937163,53.090402326445314,15.143757749376878
15.493876346944855,21.835251185671112,38.57190701941595,15.51047356644552
12.72503890597519,24.17891628073443,18.909580026929618,15.4553417648765
11.349057526236793,28.069699591311327,2.689659983429283,16.673128122713017
14.288317080801116,31.405912411965282,-4.975532734463445,20.394240292731244
21.96897915511259,31.525292906039116,-4.984844667923355,26.21214550656769
31.505534327712365,27.404684284377986,-2.0270157846378587,31.97006681124893
38.116667131881265,22.341986014779724,0.4718155154309782,35.27794752478952
38.29142187397122,22.407503566805875,2.984622033563916,35.258268652344725
32.29758978238813,30.081092528006966,7.603264250327929,32.70493441799962
23.76918283311877,40.20199805764234,14.383847642780863,28.821518367985846
16.739750215209483,44.11817701323492,20.762848400024815,24.256369054765923
12.815981660628752,37.72815311548081,23.460355432389125,19.22713413526727
10.733643740820373,24.36743795762354,19.719679392454047,13.957057450704115
8.165011550317123,10.696398531170075,7.941614043362813,8.774792354585527
3.9387846597720815,1.6832435312277667,-10.361834773657046,4.167165442048825
-1.0898168972867937,-0.9273039974211852,-28.919943976512474,0.8688260841347534
-5.077772309767012,1.9449999116126149,-39.10220351835238,-0.5912498980917832
-7.223816630899889,7.4753162720385555,-35.600134972520365,-0.8068791752587142
-8.879646425443255,12.43228836090449,-20.140856147825144,-1.6352296635517216
-12.387524955601508,14.806175539693998,-0.5703016387646099,-4.9018950537461174
-18.511912590386366,13.246022787412976,12.563934301601055,-10.866170244831176
-25.11575743715583,5.34143319492596,10.257681667696227,-18.021664229986687
-28.69784251499104,-10.858346866852065,-9.414936455071178,-24.179599516275072
-27.385318131522915,-32.16815274271462,-37.06365657898397,-27.624540794944163
-22.49977320213125,-49.178227178890886,-55.20723830957275,-27.75191861076376
-17.503584116028964,-52.503034754626064,-49.88547202077031,-25.336799865157687
-15.614957003893789,-40.30034930668689,-21.49341179688926,-22.229448174089256
-17.911806137330164,-19.064789471476058,15.292012780866312,-20.167918088825687
-22.743347529895495,1.616521236114643,41.897586163401016,-19.487336789873087
-26.575922438900683,13.883841139400836,46.97377300204786,-19.084421176692384
-26.06870439891915,13.742594403967496,31.072177528868547,-17.66460954687618
-20.312508061509362,2.709839004804341,4.914182107905002,-14.822272487426147
-11.516654089497788,-11.849447459077165,-16.415886232765033,-11.063874829387833
-3.451610038671159,-21.10087223640373,-21.72323043385006,-7.371834312482006
1.0535947140871735,-21.63658866801345,-10.409111845206024,-4.907301211996674
1.6070453037080374,-17.22155004901813,8.233923184008711,-4.449208121293776
0.03564943932040055,-13.159446420999583,23.37372388115526,-5.457301958310124
-0.9072382284183672,-10.657987479537775,30.507246582419523,-5.910744685497914
0.9315855419423444,-7.764264054509505,31.459800990507407,-3.7342590900844153
5.943185255008382,-3.7137795202684676,28.84322815013842,1.4155763374304797
12.567660596443353,0.03606050593124463,22.789109146289174,7.923966437010591
18.329630740835373,2.1820035928761565,12.62681293468445,13.587076563543468
21.34456992530917,2.658620402524985,-0.5648761780261787,16.89362438433753
21.08610527529897,1.586011908577589,-13.843819084882018,17.28313931743602
18.096527025629403,-0.7252887098766295,-23.58258393936432,15.009486588181975
13.376988839279829,-2.4078667253235464,-26.326252448187592,11.14471525723922
8.033277574248153,-0.4954911079527184,-20.009812452426548,7.259417972691497
3.0138858434928015,6.39983820394086,-5.816860263031482,4.559013479908031
-1.1683306614241649,16.643239772378248,11.076838040664214,3.29689883851901
-4.338968354196609,26.718603118821733,23.00862450990098,3.083471234962254
-6.128047346294289,32.579102882143495,22.779061529686082,3.4877388622259278
-5.763516114540485,30.399659191597774,7.385834890120805,4.162041866448711
-2.7508638233498246,18.795500993077276,-18.185293083966606,4.730006124552413
2.2167586600559415,1.680676162719654,-40.6538193285414,4.927084435392055
7.246973414164789,-13.029423531047707,-45.47610168669618,4.685113707640212
10.288605569564027,-19.696636173048525,-28.03632252945252,3.816187795514487
10.310092272363391,-19.474698357349077,1.2406890345781836,1.9100060158450853
7.757653207334195,-17.590321003196344,24.089950656543472,-1.0050173036702896
4.140222824360486,-17.33330525788894,27.984335921268958,-3.916521317212786
1.0684968889355022,-18.28146162676364,14.229404683066518,-5.5756229256170915
-0.6571840371775874,-19.27168907885522,-4.951764630793886,-5.865421615369158
-1.1954468184168248,-20.551046933897737,-16.23637607894285,-5.883187447039214
-0.9008096472695336,-22.69916507176291,-14.354089917275553,-6.425331350603365
0.4056226149144368,-25.160725181038156,-5.1130755662622525,-6.7983272145631215
3.0504479106694284,-26.216968286082885,-0.40158755278210095,-5.440055232919364
6.403926781741703,-23.068167055725606,-7.951366684231949,-1.4704589048802061
8.707179154803034,-12.075206915617459,-23.554607557767373,4.578317556626026
8.501559104594193,8.638546915858502,-33.16608642924386,11.210199254919559
6.181807843755029,35.264156654325355,-24.261244760358842,16.743906288120417
3.800294432667826,58.1909098719757,3.0917118190993187,19.88303712121248
3.2131255967511674,67.68066647859953,35.154026796605045,20.07402066719402
4.440235343973897,60.39752815638875,54.338944908483505,17.53824153660888
5.68049894859718,41.30399132076901,52.04984721525912,12.973144189329844
4.728694635427503,21.06972161931535,34.92670850604383,7.42739228426492
0.5915367172674938,11.555880185352816,19.69063580092015,2.5302538277208675
-5.703050282449913,19.660901465933826,19.539053076902796,0.2022012447718213
-11.561536356834669,40.98745496797586,32.33424434171269,1.2385915870875785
-14.372526893537081,59.769810518109274,41.79005772712005,4.04245014412015
-13.180737201064247,59.323723881758966,32.65548543488476,5.427807054915132
-9.218116823274867,35.70380975510702,6.301952931427491,3.205783206291853
-4.891537175870247,1.2345729332464346,-19.336431393869933,-2.0036448694914295
-2.1457631486288866,-25.564356636564856,-26.076727282309765,-7.414957224481931
-1.4609778502359194,-33.33010579100425,-11.674318925614847,-10.177148435076738
-1.949717139162301,-23.43912374873845,9.455763015384687,-9.050890422630415
-2.2204968069242543,-6.772603900661884,19.604269391500697,-5.008391673635811
-1.451705719419624,3.417738042044121,11.368548302502504,-0.8527193249889595
-0.027837213216970275,-0.8971609122361429,-9.233323824435297,0.3403632777346111
0.8854640345342951,-17.286428623089066,-29.740825449434023,-2.432912902025481
0.638742887855374,-34.28976900792063,-40.86929086158519,-6.898178995231746
-0.11359028283967722,-40.15301562681129,-41.52415323614259,-9.156350414532483
-0.3049537312812676,-31.71016886776946,-36.62660529342534,-7.132785952315908
-0.15549445388080194,-15.428182776215237,-31.089628336694087,-2.5746586675601484
-1.405810926185536,-1.2663447261058158,-26.236700475660363,0.34834065465030933
-5.321761252014718,3.6217087823182634,-21.464709936439643,-1.4760843559207604
-10.564411665790116,-2.4088540144932256,-17.491090712319398,-7.47836717633165
-13.550655462190281,-15.005868699945344,-16.275565678923645,-13.53929371299039
-11.321298860944832,-25.192664221388902,-18.054530452652873,-14.756886757010614
-4.272327906336045,-24.277879953769585,-19.87154008879928,-9.056214579183292
3.7599961452489783,-10.205365113231528,-17.336694654557963,0.9856174777918039
8.188695724659873,10.701891545085129,-7.209171493969295,9.823074739599432
7.060766452339549,28.54822079729524,11.117542228942703,13.014351237803874
2.530044468308283,35.992766985903906,34.59310076952767,10.21410952903662
-0.8560541554269181,30.72166798890404,56.000462760406165,4.650467639404423
0.18469602091273646,15.17843822349706,66.14710824374846,0.14207709916752473
5.15254535492957,-4.159053627632362,59.202946924964394,-1.373070281375562
10.579306054225102,-19.207605185787674,37.22771486763965,-0.25196656614393576
13.170224759932108,-25.21629239604061,9.486585998221065,1.8028720320098932
12.165633384740259,-23.915336450859705,-12.946674433995875,2.9552293574093254
9.110758354552752,-20.570280777589204,-22.81453642677252,2.316213606374435
6.065584987770844,-18.046329169579497,-19.288358226827757,0.5318130878514925
4.247668626200394,-14.964826262481013,-7.470883659647245,-0.7266402260789155
3.7676589774772737,-9.181282917340555,4.504794206729788,-0.18851527231522747
3.9178787161814026,-1.0504966103782147,10.106022082089352,1.9519944804709513
3.653465729581722,7.182032094183203,8.337971426772048,4.310919176549099
2.2543852209092874,13.636489035037142,3.6350069012899566,5.488432939792284
-0.2012995971709275,17.838330946636855,1.618040061482511,5.021081101403407
-3.042981710867386,20.79972323773771,4.819288430651896,3.541471220569343
-5.630950251423074,24.45759128939149,11.801571707393368,2.202348341641617
-7.638662197864397,29.36292598400567,18.840165940968635,1.6656267644558715
-8.873631857443527,32.217844145320875,21.83600133963403,1.377951289119843
-9.21635182834721,27.8917487475482,18.206396375682388,0.08533355116405439
-8.831906370185822,15.934554219136938,8.912271337334282,-2.5350367158686287
-8.115749121265754,3.747768495713897,-1.4484899674650058,-4.9012562542359674
-7.239114825379661,0.48868738684950874,-8.046533839442121,-4.758406274998029
-5.991198290541026,7.402227097112382,-9.83639493864207,-1.6501291606088662
-4.281462810538454,15.70077798848259,-9.645741511684445,2.081457301591386
-2.5672555026342345,14.328383019225924,-10.527901704270407,3.025388731193696
-1.4755519150002334,-0.8343823966695298,-13.079705838846836,-0.46967849535898437
-1.1081544573337434,-24.143398269237384,-16.22974839670362,-6.881733121791606
-1.0131401608252923,-43.76911615604544,-19.04489864625681,-12.430835483032054
-0.7913532932708796,-48.180347903581406,-20.80360781381374,-13.450754759485044
-0.4300245043343841,-32.94945107786383,-20.086958894043853,-8.717066666580727
-0.006562061207149607,-4.407137888265851,-14.905623837100904,-0.2978535564692267
0.6717035744555621,23.832343619885272,-4.147799649712598,7.844818607726795
2.0233235944670653,39.8905823996301,10.483978149052454,12.624071140102963
4.4022972798541415,40.21361694028697,23.1482536314337,13.650619850166843
7.789728495668986,28.601044560014742,25.314376091819707,12.614701210668063
11.503185923257579,11.46531306240482,11.466809836534571,11.276052941546677
14.196377838740386,-4.788054625588659,-14.357359349321104,10.243936442616668
14.524220818734058,-14.659170798994394,-38.433729014561756,9.202510400933942
12.125752537204715,-16.00297418886067,-46.27063794725008,7.531198269414514
7.935663609902385,-12.265439587895475,-33.557040054131996,4.620418385294302
3.46448464631828,-9.891962889221725,-9.054891985870746,0.29358522745571086
-0.1584258061200802,-11.994190374635867,12.895579857985748,-4.5468037418645775
-2.541097507821453,-15.013182337546818,23.129923290262365,-7.929443710233531
-3.871257625387688,-11.905097594889337,23.06508281677009,-8.005969240271773
-4.693413751027523,1.5849568126049,21.642146498822317,-4.533423955299651
-5.6097153105546065,22.548925945987236,26.569303110574733,0.6503029240737043
-6.80586413069373,40.73297611440759,36.16802723166601,4.482915576868848
-7.820205025885652,43.529391653908476,39.01011955917106,4.354442664676022
-7.937104794617827,25.36626594416177,23.97700216339551,-0.09139564206925112
-6.772365625016386,-4.8657692616896595,-6.655096784093471,-6.087152385832779
-4.387333321714852,-27.34485270608877,-34.516214015544314,-9.056558048158593
-1.1104501247059009,-26.058198144396716,-38.266440195347,-5.954074170402055
2.3158988754116385,-2.1269532209728834,-11.776148284126174,1.913195174758193
4.510149241201178,27.145173226342436,29.600332479628584,9.423698153911035
4.062434477824814,42.10216380329811,60.139813474773426,11.442090707418425
0.8763653661623074,34.43355410860621,61.86109676958566,6.6558498164572955
-3.2555614594666444,10.851183710592196,35.38569415867616,-1.6402693312335759
-5.795903143184423,-12.95845435939863,-2.4127854699842306,-8.036658416200325
-5.275287747368795,-22.730169906258386,-30.487588407755915,-8.632014885786038
-2.019229982048329,-14.837215921212387,-37.25248243312191,-3.3841613424710926
2.507951542372767,1.3756501588187158,-26.962733261523987,4.1262590819499545
6.624080346168723,11.223335406608623,-14.153821803415296,9.27124709149941
8.87646276631292,6.914111345017573,-10.53177638773561,9.444761635539926
8.332402972526612,-6.809286975472689,-15.656112423403835,5.319240991420204
5.02332316865239,-18.513923611864186,-19.210504956607064,-0.3965466340185431
0.16338071291123596,-20.33720787748777,-11.666900176242017,-5.107246097542839
-4.244218355876888,-12.913017284615275,6.452135443175933,-7.45709103215214
-6.21769288830391,-3.1410652086755233,23.589802375640467,-7.212666189410706
-4.658158143605346,0.9497606899151967,24.658471956678852,-4.899811545709297
-0.044115485515002356,-4.751036884742951,2.414866813302966,-1.6041248428429289
5.485651720699648,-17.019541663681558,-34.785321699290364,1.451643658817776
9.202558310699088,-26.633669615238624,-65.99576028049336,3.5220157009361626
9.606024472607922,-25.462985896258676,-71.4939898159051,4.545778841795165
7.434751292083918,-13.249336383906895,-47.1639820817548,4.87596467543154
4.787597805260629,3.3869361395430646,-7.107560179099718,5.089675783726941
3.177652730695789,18.07505329964448,27.359057937259127,5.8868563859970635
2.3960140505169965,28.770538495293174,42.019701978747754,7.47017407514934
1.0749385322188212,34.92854549004445,36.29842045003459,8.687770650288288
-1.7937732739963146,34.07712504549637,20.054940124561192,7.379129438619187
-5.724047648452273,23.91624816715381,5.904330206619645,2.3724138926104317
-8.874509113004155,6.894903982091323,2.2724511985770026,-4.793150315743239
-9.508906707203385,-9.558598906469193,9.71926116938039,-10.648800239012127
-7.738550891113752,-17.96578438802612,21.76662845665242,-12.623814034077197
-5.7854622305007135,-15.949974988160362,29.824643921076166,-11.103791210154085
-5.996775549646616,-7.783185214726906,28.926852184113944,-8.783456665011604
-8.30475238604234,-1.801187428328327,20.25389779019343,-8.160474984345244
-9.929660135172988,-4.617113908591685,9.444785736431072,-9.483571110114712
-7.932133350799187,-15.262834498143103,2.812971056754988,-10.682048577735863
-2.047318032538141,-24.865299600306308,3.7446380118556766,-9.15888028932544
5.017830450621981,-23.998915523371437,10.604982699226408,-4.049605534084981
9.802144872858879,-11.195614672565831,17.48595058666842,2.87617823591935
10.481615569186006,6.407252231886665,18.234514718853536,8.549607985753132
7.590549290470865,20.45357644455239,11.104796269590206,11.016952494094387
3.091014718117881,27.95101879337693,-0.20626533854485454,10.61806656995524
-1.167317049435205,30.87661644982925,-9.987267988507034,8.942988427420222
-4.542376963629713,31.894785662526576,-14.546099654791664,7.0133624739358105
-7.505939815962016,31.9815872178925,-13.275361055125263,4.7218380681294905
-10.399597783372407,30.759484634696438,-7.5184982293400475,1.7906956234032416
-12.282429149113126,27.350366237916134,0.30975364608409167,-1.167810968021423
-11.357398073924434,21.451629715244543,7.331827818864739,-2.6950988193395977
-6.8599198902726775,14.697026969991791,11.589891942770198,-1.5988431320888965
-0.453658918810778,9.976731545695253,13.014749303006846,1.729137598554724
4.533376644941266,7.88670722556775,12.315456921756502,4.911888817605921
5.520252360394056,4.77671441814747,9.25693716327964,4.941522812152607
2.689359134346013,-3.519855071117427,2.9472633173099942,0.7820446103531306
-0.9267364805405752,-16.073537663201744,-6.592981835240095,-5.0098162560412876
-1.3185783016904475,-26.776601040858715,-18.227097259950476,-7.6842806105971135
3.795448092937368,-30.038847068922365,-30.491721604185486,-3.9677104490956467
13.127882934058132,-25.128893785331442,-40.95692718068782,5.22228723407073
22.306262580085985,-15.190976191097587,-45.11772164418012,15.35714618715329
26.643432317551568,-4.380722593917049,-38.517567450421424,21.375189023169153
24.199358922023745,3.4252719087546986,-21.655630174362887,20.701893748279492
16.79289752676755,5.792961668513742,-1.8248063158741372,14.480907670376903
8.480580419527206,3.813020757055398,11.531285540512618,6.7302046858216205
3.0213348815202132,1.7996387855432787,13.731132719394056,1.874934580024963
2.003588611744486,2.871129886407815,7.488363444590529,1.8500086726344431
4.257448333710075,5.24858676301333,-0.1890402300638663,4.772070516013369
6.578286891429028,4.363007512309133,-3.403849551267265,6.475229407645648
5.611727412995669,-1.8376990864465204,-1.3749164256878907,3.7736128403370666
0.02728741142774602,-10.870965913240823,1.2841358851021718,-3.285894030152711
-8.577989857595313,-18.10141132964467,-1.026329118773145,-11.748123645136225
-16.806182531988494,-19.441056761455478,-8.3647397649455,-17.840609804203634
-21.577915956127484,-12.64552734706329,-13.062000227819558,-19.10137824978189
-21.56287910328436,1.124079780437141,-5.90565800030976,-15.49840160405094
-17.346975386215643,16.28538227771057,14.30575672009189,-9.207447741323227
-10.870930236698772,25.72708868982999,37.92632849020391,-3.1403376509109284
-4.581752658411081,26.476717053419943,51.80360778543687,0.8737287246023984
-0.38538850887491183,21.75108104427959,49.35723575053621,2.7994201755286534
1.1667640325684345,16.744488257021576,34.085835692989946,3.5222712189398284
0.7912826854923617,13.673268675033933,15.254689874661263,3.6088724370139134
-0.42072218979134235,11.712450937496627,1.3310995434734318,3.0613210312597086
-1.7783967768061448,9.861941847034617,-4.130417869763523,1.8621528715299234
-3.06548143047289,7.764793404911668,-3.1468845190149546,0.20542991511284694
-4.251865101062282,4.600353904467391,-0.8543013589235873,-1.7804370149156772
-5.293492014579808,-0.5541990677917463,-1.1488098076872253,-4.0709893001683
-5.970355868791688,-7.180383757748755,-3.7736638237020856,-6.3645043142423186
-5.751020963290065,-13.65546419049965,-5.853567682082153,-7.975629011298192
-4.071119926067043,-19.025826466862906,-6.136150845884124,-8.28216178754066
-1.045607729119317,-22.937781648106295,-6.893818800168927,-7.111591525201509
2.2085271233557857,-24.037501283041205,-11.541721095162343,-4.671955486086431
4.270391512966683,-20.485919073490408,-21.010594065938356,-1.425078997200042
4.499745208632578,-12.563461756953448,-32.095056980721125,1.8463647178981157
3.350528632122742,-3.0258438691335225,-38.16116537865086,4.21755985487779
1.7742017339181966,5.733888776701138,-32.04864514933098,5.209874792661728
0.5888613557035303,13.047718158398913,-11.246895188561968,5.070858508515619
0.31794000018175783,17.665741248988326,17.625846417882276,4.27382665204186
1.141976446285418,16.455871534610548,40.63155831906048,2.9736502148431576
2.715105826497718,7.831461781186477,45.6032859731496,1.2663166332232607
4.238481493872029,-4.430360977593337,31.15456984012644,-0.23686238158804587
5.014072023252206,-13.119750186424202,7.245443698323441,-0.6026390745928367
4.9514757033491215,-13.506645228199348,-12.575364298211953,0.5816155228359552
4.505973337599207,-6.273419557525651,-19.755353603847002,2.8757951009919966
4.292161859353647,4.531637340146739,-14.206552023961859,5.537761835046448
4.840125787167855,14.438763866177448,-2.533664453802199,8.091418422564756
6.404931925420191,19.991656988030886,6.530502325542544,10.298264664834
8.593151940460661,20.149192399093995,7.384324620436854,11.934205064535423
10.186371770837932,17.45129250457353,0.9848436116183515,12.769192855629946
9.739414407774849,16.058804342032605,-6.177134317228796,12.506708507080688
6.702152204972588,17.32698617420251,-7.137299333224644,10.661039267030961
2.0638706517382097,18.318922180636008,0.5567138437270055,6.9406655541020825
-2.100310155289352,15.512601450297415,13.625350668928075,2.087438146579524
-3.8542472319180665,8.788250536847704,25.50297803055983,-2.0307591314333617
-2.6223584268416547,0.9021583994015044,30.139667845627503,-3.7535848614225222
0.28704042966013416,-5.493313096740632,25.411507937703636,-3.136251368984207
2.34545491667211,-8.970807146557794,14.636311298676064,-1.8847958176467472
1.5398323599634474,-9.111805056441874,4.364031234327479,-1.8354661993778232
-2.0148690043377107,-7.589252394233475,-0.9706527384841344,-3.6982756083319726
-6.122039079488666,-8.82371416403411,-2.7062140005045103,-7.0378177676679226
-8.331157563728423,-16.731179010379417,-5.50720520469707,-10.85226440692451
-7.8146604078626725,-29.825041693947046,-11.166320356223354,-13.956669136765054
-5.608304532254896,-40.975440873414996,-15.899763713202667,-15.276303979918602
-3.4343402388254343,-42.821736472385126,-14.265739148553177,-14.297472886551956
-2.559905233066088,-32.869971358064234,-4.955347065618554,-11.324406262314843
-3.3974050843772035,-13.991088882283147,7.61317730931751,-7.21771148281478
-5.455164610899101,7.694564414994048,16.36960149670802,-2.939578145041919
-7.436046334336236,24.897784905791113,15.859541304821336,0.6982866832887887
-7.868798325034899,32.03985956345207,5.286666557834396,3.2054685948013297
-6.170550529945063,28.83115752683844,-10.690407775822797,4.618630057462941
-3.178848391833325,20.664184827108137,-24.494321598730984,5.389619805589808
-0.5409482146692977,14.134046304149974,-30.554342229141383,5.853133933840925
0.4607649936181603,12.508415027180147,-28.3594296699726,5.976764999102892
-0.3236362277830152,15.889267950581704,-20.838375124568728,5.876729767091625
-1.9069545895198294,23.600194695354343,-11.025463955728277,6.301919058777173
-2.7795014289331625,33.93802735805701,-1.4386876323942146,8.055435029800806
-1.8875837471519004,42.61510494515069,4.652912741916519,10.882761996495763
0.5820163038470952,44.68578122463144,4.1562135243628555,13.388771828872894
3.3620259869357856,38.960745774805545,-2.7047646086135986,14.25207053340982
5.212619947507254,28.832796824513036,-11.374571110631539,13.234703600803096
5.884645244252178,18.194088349992132,-15.931102170660688,10.899555408773482
5.985656252232144,8.057838254122265,-12.948019384025567,7.7713638258300275
6.147960757976581,-2.471253855265703,-3.1773896692591945,4.112066492219765
6.574358597839077,-13.871304295432203,8.895661156290085,0.23730981574088977
7.193833414816629,-25.753165938269056,17.052535481372047,-3.3688488603899587
7.784806155725164,-36.806527097678895,17.15276736863117,-6.204025585554957
7.822838435149768,-43.74188709105165,10.879220803474338,-7.803163489678587
6.555627494960608,-42.04624711081853,5.160979890121884,-7.866672130104797
3.5366697850625206,-30.222507788533022,6.313004199931065,-6.71615886168479
-0.8947444722251086,-12.914199976875656,14.33282615237324,-5.471137796745857
-5.611331073181518,2.0705662883812628,23.312418282634813,-5.194039249773187
-8.984795579440528,10.015391887015998,27.06535595581541,-5.635680602358078
-9.318710579722442,11.648222490726953,23.78772670983371,-5.180945580162042
-5.687916526042532,10.060618355630087,16.083001437069136,-2.394666400372604
1.0220674977437125,7.229976703840933,8.138191016533568,2.357794792860509
7.992924071932726,3.4859883347512866,3.0825471254673515,6.839976105648046
11.966194746868554,-1.708816101649819,1.468875920697309,8.402244384296507
11.309558919153282,-9.122585653443187,1.1927543412123112,5.731235524186894
6.846776729178406,-18.240951630244826,-0.4145396299810884,-0.21939008951261416
0.9710941411525773,-25.694790797352148,-3.4672133151729003,-6.64256355402194
-3.8410603401092227,-26.98622976877622,-4.8464773850266,-10.553877858558351
-6.059461495242607,-21.041425492844322,-1.3876946798392298,-10.698294302114675
-5.574072881903915,-11.686254276878845,6.426067464744146,-8.093138014385806
-3.674928801109949,-3.3533070123612814,14.257327242720716,-4.727622576785241
-2.258980384110189,3.1501923467250226,16.70952805190446,-1.9023394131957496
-2.479265997284187,8.854420880960054,9.985068039286995,0.07766363566540048
-3.942118312201101,12.21213628366466,-6.379382503073541,1.0820107444282727
-5.238323879101255,9.533642639042345,-27.818021743826378,0.7688630842015116
-5.223325933310339,-0.018630265210525784,-44.81630900121531,-0.8942928305735607
-3.8614303848200477,-12.20703282204058,-47.59510030621736,-3.289746154652433
-2.165016265178149,-21.12857685759033,-33.24107203704011,-5.62937594758217
-1.4975758951260418,-23.28960508715868,-8.577841058275427,-7.441659430569976
-2.584058586809436,-18.285094182138007,14.367702569126765,-8.335694707271248
-4.7022512246225725,-7.913573302085671,26.06308395414417,-7.653098034643888
-5.853143500708846,4.252080911860862,24.319392649880825,-4.79843730033773
-4.190444970463093,14.55004241689624,14.234143451064604,0.18762231211646685
0.3941687321944082,22.428411333290114,4.206783602490907,6.6528199296088575
6.086229217742432,30.84242444876418,-0.07315928984448107,13.720029731781828
10.490845758314098,41.734163045552826,0.07026513294654643,20.25142561579051
12.068140801277824,51.901598639472915,-1.981967001351681,24.589052937866857
10.535747550081055,55.156948070141716,-10.975504650906977,25.01020868810992
6.536006814555861,48.54370922329693,-24.01139853269228,20.92607125587024
1.2839023927411182,35.498920426883615,-32.08709697099648,13.65775713227798
-3.7889894852938846,23.350210956157074,-27.197055890215406,5.909260421218131
-7.580877168129352,18.287420012938245,-8.383166750509941,0.27794333230779644
-9.661765609904416,21.097421280701912,17.376934751138265,-2.2056582819713646
-10.017265790353036,25.628930845157587,39.04194526052165,-2.6025326559357973
-8.643728492578093,22.430491149425222,47.89495654714438,-3.1168781518975255
-5.676143631200698,7.149627296100537,43.1102862013297,-5.083150000111169
-1.8350368895603628,-13.724031575395005,31.930895970042464,-7.613807936287317
1.6082701891929074,-27.66479341025471,22.840889802115854,-8.532757388058513
3.505679473845477,-28.04030328814715,17.601759383996196,-6.8598407472596366
3.502238516511503,-20.055890285296073,10.97193991943643,-4.047791558378225
2.2018401890009827,-14.114317296448252,-1.098047819470757,-2.447608230426339
0.8642704405605327,-15.040958917552361,-14.466592885192888,-2.821122218522951
0.7575938776540379,-19.172932050752383,-19.640107295567137,-3.773722838754975
2.317161870714915,-20.188299853470166,-11.297566871477976,-3.466886120753504
4.703225166990378,-15.391786779406024,6.0109573515621815,-1.425634061472542
6.407024061781775,-7.160437652146439,21.05966645740988,1.2726343686318824
6.532797592164429,-0.833168736991478,23.717880563343968,3.060510740092846
5.4458363895292985,-1.1585311742705786,10.893887723410202,3.016731632625679
4.159901470159002,-8.330459165968676,-11.891525138243377,1.4721219392429699
3.3715748737717117,-16.729308409724904,-33.33768524868045,-0.15216659587988607
3.263748756586635,-19.44680973317792,-42.82807426995781,-0.3936220187504662
3.8999934433428125,-15.18637068696862,-37.128081675946376,0.9599237109146388
5.272987692642323,-9.584387250931524,-22.01214782450924,2.625962981684558
6.859548388954407,-8.982274112819596,-7.250001298125194,2.996177944701217
7.439239544270321,-13.913452538040913,0.3495133954596519,1.456234736222503
5.6394583102642795,-19.07616216523611,0.189521325953683,-1.41659792932841
0.8860234240933714,-18.181636659911614,-3.6044048314297585,-4.472406204988612
-5.782484169953392,-8.369251806908448,-6.1386213359515684,-6.414543393273643
-11.560572088910439,7.68483409078602,-5.944021994666721,-6.023320352006818
-13.01433677928044,22.049655868776302,-6.779116678908029,-2.807114962133381
-8.481392102151192,25.897421485712886,-14.141179169769096,2.2446089717720445
-0.03186841814259983,17.00324821912721,-28.00143510302628,6.912667579844836
7.274508299635509,3.2313190241339256,-39.363447638093746,9.106074903540442
8.864922817078716,-3.656112874711575,-36.34501525672149,8.058767359795974
3.9565664614023888,1.3906241387447504,-15.098769551804468,4.415563021268694
-4.193032623633237,12.851719248725576,15.45914860845028,-0.400437607784247
-10.913809371515505,20.75655888879783,39.931455054792515,-4.780706799678432
-13.052484216789756,19.198246258511805,47.4808777995203,-7.364793634031075
-10.207870678808428,9.668000118319004,38.18540011778495,-7.414387879459388
-4.2542921875302415,-1.0121373454717109,21.166876329408108,-4.939665689586693
1.9266851434356165,-5.18047458941907,7.49050742986293,-0.5923627077471348
5.795133396558162,0.35999100448458854,2.9801606758062897,4.26674907711969
6.096460639573293,10.911775155780036,5.3481179342636675,7.457502559615614
3.0621214156774954,16.791624930097214,7.606666728494985,6.761124429360274
-1.9770858629253185,12.124145758324534,5.193284235630559,1.7493580240280289
-7.086928393977906,1.0854765677356994,0.504191893725536,-5.047757932646228
-10.271023400837558,-5.647102494239828,0.5259600446056956,-9.439917615024354
-10.338913778225209,-0.6108537963657831,10.044379197118857,-8.645988976493516
-7.756268842299696,14.557540011730659,26.994497158357806,-3.36097392251319
-4.465929267764941,31.288419302232796,43.58093983832132,2.9441829456830577
-2.4225090969567584,40.12571284804866,51.279093717922784,6.576699370489303
-2.086051798710681,35.77854117104503,45.81106761929212,5.913957189707269
-2.294981539032191,19.85635692630065,29.506916683897636,2.1487636264932566
-1.4722122023839952,0.43105622610181593,9.863489232769142,-1.650404669174784
1.0922561450942367,-12.801660004780352,-5.271657713764124,-2.6107596978516843
4.826886487298286,-15.162277773861382,-12.57860455738372,-0.0022388216138299034
8.31057381204222,-9.35003310602056,-13.969828784933956,4.435904803478512
10.12017150098373,-1.56673652068897,-13.017563915870754,8.03836559321021
9.667702236206239,3.377386849111486,-11.780432678842153,9.077853790649772
7.509565658370328,3.12270487186172,-11.257494005857522,7.3423016395029626
4.827926345043229,-3.171064907091341,-13.014326872449997,3.5791078609543105
2.5914514930266943,-14.154416909217705,-18.265106593369374,-1.0004445244411768
1.2782345758739715,-25.528271559654197,-25.427203763490482,-4.870828728018776
1.1980338130877883,-32.40554746224777,-30.008844103393034,-6.6566609595102895
2.567773400830545,-32.809557316387725,-27.54296483076316,-5.912623195492033
5.05189880617421,-27.86692666816783,-16.812372723217365,-3.3076011264035285
7.6156768485401045,-19.438231964227025,-1.4312603727414088,0.07391856653256756
9.26626955444923,-9.579745106743106,10.629749571092734,3.416862840839398
9.843080958584986,-1.7385948441821377,10.66971277209522,6.1703781435634175
9.751487122920711,0.6494861293087624,-4.098153003771603,7.811437327468194
8.994022197187668,-1.9074724999503778,-25.88635253353233,7.963575404918043
6.874280305910435,-4.24881037396048,-39.89098701156186,6.625508619504629
2.8219557171670235,-1.2433228140083548,-34.96737081186111,4.130639181218959
-2.6732027583469855,7.684931263154868,-12.332189948071337,1.1008191331994333
-8.047220637028234,19.165123077777128,15.125883828244277,-1.4096009289184326
-11.48581533739849,29.162439056978766,31.508278562770215,-2.1500782056697214
-11.870766759549662,34.362041567284166,27.717535229640085,-0.642685923228094
-9.330164306357476,32.25208433087961,6.85888320000962,2.061451633581175
-5.143466359455616,22.65596177768278,-17.38279566788612,4.0175902156906576
-0.9764709898625125,9.157421148129687,-29.38006341002208,3.9718012090983676
2.0299417068788124,-2.92041477381997,-22.56987384390858,2.1959175089495786
3.471476915500041,-10.318650253146597,-4.098837851822895,-0.1640515610982994
3.112258119835888,-12.663330202699248,11.958599111422066,-2.219194670017061
0.5566997392102097,-10.265087215138006,17.04159479300761,-3.77796149658897
-4.103221703820879,-3.4376767181591132,14.26767586881705,-5.075724168697611
-9.449279397152287,5.625128719475246,13.078195260862831,-6.335624634734497
-13.058906893234749,12.591633572417903,19.0064592667381,-7.392475876768722
-13.020950303364282,14.087567794633948,28.620846250595207,-7.573782166296783
-9.269385354312966,10.13284231008473,32.83711630702468,-6.20707210992622
-3.629419827167443,3.036060930575668,24.49015196070534,-3.4961391852940435
1.2757864579153488,-4.442821528432623,4.554618514844703,-0.6645460485657853
3.4719220602106655,-8.963319625881917,-16.915423268956694,1.1079603856495857
2.719358674911253,-7.050129505694057,-26.65476070453077,1.7693522504780241
0.5950713245246978,1.5399782334793437,-17.828946882890502,2.114688692152982
-0.7245442484447577,11.496103232022774,4.232682213687696,2.5715052991525136
-0.20174560962343702,15.572459713027682,25.931220446788018,2.698743024905874
1.3342764168152919,11.261462132699878,35.672055557767905,1.9169624640753509
2.1175647876182984,2.8947097986383334,31.166356360405747,0.3349179201441899
1.0005591657415402,-2.7126135018326876,18.407404459048763,-1.300049937384381
-1.7847191483695488,-1.7053563537149732,5.34618447227183,-2.211564331128477
-4.927628903837976,4.668211383063859,-3.719428740614103,-2.07449123899041
-6.778279292362508,10.87498735860554,-9.850690917920272,-1.2132708784184627
-6.123917566495871,10.069385891855736,-16.948705143882503,-0.47724182630385914
-2.8696987173767265,-0.7329788180794856,-26.55278492556131,-0.5742480550381668
1.8105520179423242,-16.578941975903508,-34.24461069933884,-1.221174210899203
6.199487272249766,-27.131620677516363,-32.28570327175291,-1.1752322756310485
9.076625030255705,-25.226274686532168,-17.215475198052143,0.531523109507834
10.091584291016936,-12.820192378295928,5.3428849899091135,3.4375613621437924
9.398293540882296,1.7609490093588285,24.155938535724122,5.956078835081571
7.40299927755992,10.992578033936955,30.551180400632237,6.753544541215785
4.972707844087481,11.857568619765868,23.42500800922603,5.664106596172831
3.400358821902915,5.045563918191782,8.098033646955315,3.5040006484249324
3.6314571809329617,-6.169340790097354,-7.862287854882412,1.4406812608090631
5.438608133023079,-16.405195943838596,-18.265196565154667,0.47634419792328275
7.498616334249459,-20.45183617743759,-20.29189613160476,0.9663834897968794
8.294108496675745,-16.642190241871777,-14.735240966361207,2.3160484295319703
6.998072661154334,-7.451689971561207,-4.619058774231307,3.375055399179961
3.8479215172259122,3.038350972243094,6.385102251791731,3.362840116254261
0.039602184892277466,11.045776704940675,14.26565087075336,2.3320937446718997
-2.831993250664074,13.221300083163953,14.757006514238645,0.7812623883805924
-3.6820800412045167,8.029564327775208,5.536812426825037,-0.7700055120593963
-2.616948875787841,-1.276026340846344,-10.298892479422294,-1.6485280605709616
-0.8021253525707852,-6.842970631514156,-23.873537324402708,-1.0090983869043448
0.26903164472015634,-1.8540379378089011,-25.572002510751496,1.3899729615130707
-0.57177794979245,13.60329157208148,-11.815623244691626,4.40028434054692
-3.720135337452678,32.42944309156926,12.181549376439808,5.975703150540063
-8.27750707413097,45.166741017360465,35.3243377419164,4.745347314814103
-11.879929082087395,44.64394537097616,46.49037734671071,1.1204270710975206
-11.828578137725048,29.240434922621994,40.28462831809226,-2.980974595369984
-7.278965523412553,5.321923827847616,20.578567683243545,-5.3009429483391255
-0.5236153700213405,-14.009840537853831,-0.749538365576968,-4.492029091364802
4.254602507863154,-16.750572315317566,-10.990360104792027,-1.0112431853975694
3.9597439258576905,-1.5760490170411006,-5.387887470437388,2.880004198287505
-1.1978136306399252,20.478640565717946,9.975603588713305,4.485267578811974
-7.907040395907767,34.595414624980705,23.6622657165518,2.6856505609763213
-11.985949335103786,32.57489694262542,27.070374193062154,-1.214677948380423
-10.981429494294932,16.372992183094382,18.44516075864114,-4.670678211842771
-5.537496804162861,-5.267604155581129,1.6375976079942944,-5.839674490296448
1.2524753035213385,-22.23885740079674,-17.24852796116201,-4.471500595565389
6.043766610193168,-27.91779761176534,-33.03492786829461,-1.474392170634879
7.362242040574,-22.44652231898307,-43.434735993636494,1.844566533441474
6.062729656986717,-12.063231899038259,-48.4329734324561,4.280536206178594
4.072515800732218,-3.921157847152995,-47.45705693018389,5.127178584500392
2.8381331911788505,-1.1250559398051472,-38.17120247900228,4.3953987785902715
2.680468986438518,-2.820373696688182,-19.65597604612219,2.5173822026455617
3.011545523709402,-7.400433993584773,3.353683134953398,-0.15217682317704978
2.8871735715613562,-13.597445279705104,21.058431792165706,-3.283188427179766
1.7702470237429948,-19.401571107583806,24.635610614234185,-6.085694560523686
0.28479452776907793,-22.88963544472104,12.417926341404854,-7.40720119358936
0.11527966478007595,-24.748231712046902,-8.548640796968044,-6.661447106131157
2.584025701936078,-27.61856113726625,-26.044663898577497,-4.464914526809914
6.995307089692652,-31.634375337592786,-29.365177140563343,-2.1078757984452308
10.53260334931202,-32.222332350387326,-16.117286820674448,-0.5187583356283225
10.120461285371094,-23.9194855490175,5.502082059719497,0.16163895496584132
4.777973330885827,-5.8764839216320945,22.239959996971447,0.34637267650888903
-3.3458283298537985,16.819237014656665,25.75068961877223,0.7133801821775174
-9.96268338009523,35.934869046025405,18.16117560228477,1.9083951143929143
-11.159273276861464,43.75174226515995,8.250806074795944,3.995409137122964
-6.068671502898018,36.724759512696046,2.9166528715677207,6.108869039557142
2.1420084922768416,18.744828577631896,2.514490724494958,6.992666739116878
8.09999502729969,0.528701072071238,3.100287210736593,6.043627423028093
7.8569944689575575,-7.0840038653498,1.616140827327531,3.7071196686786907
1.5592605314958015,-1.0247535913485792,-0.9689843150428469,0.9361325723436035
-6.8647708644382135,12.57345079476462,-0.4165662780780273,-1.4160442763112087
-12.454081623777247,24.137163233490348,6.9381074837971335,-2.698663546567623
-12.173824915000091,27.163527731806848,19.875686940304224,-2.4700243958720316
-6.316478491149165,20.82520544331998,31.562566984044032,-0.7312604822889142
2.050741920919664,9.57258701814827,34.601144177841235,2.028902062414642
9.03099546599018,1.019669680888945,28.063159592490255,5.19474154687153
12.089373995317272,1.324891707366828,19.041408331077868,8.200071595034965
11.089930485377698,9.97151819577504,16.188010071107115,10.202001963396873
7.55499422944954,19.59609059100478,21.522960220409505,10.028804473918008
3.1198113575591795,22.472693086503504,28.579664428322186,7.0627073800302735
-1.2252059864040097,16.959049514410058,27.841247717312292,2.2092039022830057
-4.79160897140345,7.107807342152932,13.872119037013919,-2.4442241833322353
-6.887283007346968,-2.4637613965571674,-10.831143582662522,-5.178772895654695
-7.2887408877562265,-9.546318353373161,-36.49613672056121,-5.8355518579984516
-6.750167120559032,-13.461695938894715,-50.83783295503934,-5.615701225331289
-6.564414485542037,-14.059486706688606,-46.2989370492124,-5.961110750424571
-7.461878480266029,-12.076040188583391,-25.30340106448506,-7.4750702126856625
-8.95518007293731,-8.767376843521122,1.0980424818767587,-9.412224020308166
-9.63200696188278,-4.779411878513215,20.363406721075254,-10.04900044043317
-8.040079871169,-0.710435533329765,25.432119830426444,-7.98985776617246
-3.68089858518085,1.4042483297249073,17.18451591313025,-3.5220277360990884
2.3210939330609386,-0.5175329013443829,2.8195869387208585,1.4025706169658465
7.481534250300759,-4.944436946771447,-8.207020749627517,4.7251202256599045
9.388035318818227,-6.735819655917188,-9.91136054690108,5.745563664030223
7.403417960748746,-2.7181177322445786,-4.426140455429119,5.06885457338331
3.193422605641325,3.815691130743921,-0.8608363000132452,3.5923766239860684
-0.38656561441448273,5.864027286577795,-7.828457463340315,1.9771185333250605
-1.0937204047754512,-0.5172439618474122,-26.04744595011802,0.792259919238381
1.464758876943753,-13.127629625076723,-47.69012302100789,0.45358724607644435
5.713655729937045,-25.939184007855218,-61.97012947791451,0.8279023158807782
9.048241728160349,-32.6524119908892,-61.30102574682245,1.3047088327737153
9.413865695167953,-29.169717850081426,-44.37499852916505,1.461906304187816
6.610329620178646,-15.796535012448738,-16.256275934417182,1.4022299128981257
2.2463011597140516,1.9964940240322826,14.043108006261376,1.3286075521499383
-1.7080542217629122,16.867991397384635,38.05501719157604,1.1251813145016816
-4.371549295873862,24.89706571377847,51.52993318465908,0.5827671596716654
-6.010314241305058,26.98648316040317,53.96286889527626,-0.19734580979814934
-6.956401185422821,25.338626944979055,45.500079832422486,-0.8228594626811465
-6.8287056334163605,20.761377106709826,26.620220821208637,-0.8001471211289112
-4.826158532234158,14.246648733780283,1.8051685590674365,0.4632192414681669
-0.554620859192958,8.704164554768232,-18.72313961741528,3.4314747749995007
5.389912211930175,6.691536456858958,-24.15342748608362,7.679201506963181
11.323672067006054,7.292258383565288,-11.274196943352027,11.449390642586858
14.947795146160342,7.21903047141488,12.640443741186758,12.531963463484182
14.48647634250031,4.540963706238583,34.83029589366919,9.884807529635397
9.972683855486226,-0.3125088496386873,44.865343675582906,4.368168398069941
3.5566897670802025,-6.4824351177120745,39.61764456290178,-1.9324837533573909
-1.6649180492659583,-13.22464659222861,23.732475576459574,-6.781140193192417
-3.4386232055779793,-18.414650402048498,6.184688395947872,-8.461693223396539
-1.4905048818202498,-18.896554736749763,-5.609210791830209,-6.337003150759717
2.436759446351268,-13.5264642093109,-10.4492689386608,-1.461679351806525
5.397457511570778,-4.674753007827802,-12.640351616198425,3.537160349509992
4.686055808970664,4.034990412880606,-16.47645788382174,5.841348026748588
-0.47383537266998144,10.403708771932287,-21.64506787266086,4.193993738329973
-8.066800998294342,13.750895986295072,-23.824478795807995,-0.3827076181245077
-14.297454616276307,14.193547346424072,-18.78309863459218,-5.284333311494873
-16.067220512933076,13.095202039715499,-5.939512567343728,-7.81400311812028
-13.045675923490252,12.708177139596296,10.16931281389809,-6.747909834250326
-7.767094962142822,13.572165268713638,20.75703406393402,-3.237364152296896
-3.8454337778506704,13.200182330377721,17.24384186271207,-0.15676906874173116
-3.623422958229738,9.204992546367723,-1.6134832564889603,0.10777893341001686
-6.659428158957374,3.0961940437256397,-26.02084543731384,-2.3292990899191244
-9.986273753870222,-1.0675888011022183,-40.60945990614823,-5.076088393991454
-10.22029363671808,-1.5720070980386907,-35.910785966214,-5.720697526074638
-6.21824927650727,-0.40982288040990444,-15.400139210445673,-3.756634146295874
-0.10921496224478298,0.557972085733588,8.267905249610434,-0.47842164819636274
4.373037117888303,2.5085341562004504,23.449727993437026,2.4424586701113897
4.888268531318723,7.249805365194479,26.71440612413152,4.0126684740139815
2.2272253860274787,13.006282224558399,22.243536323387612,4.01773574468026
-0.5218986970264805,14.079421177299055,15.950016176899823,2.6933813316002952
-0.4482028593879517,4.9431001265487176,10.115151503410189,0.4395276289285463
3.048041637448207,-14.83390179460031,2.8341653741072252,-2.2907085990173033
7.9028103212512315,-38.173494346878016,-7.6992020967360215,-4.832401964462452
10.972881671803014,-52.693211799301196,-18.56326413121354,-6.083297567206793
10.406086506403591,-48.020342244528244,-22.58610691051417,-4.853016631397958
6.956148452860694,-24.127962969420665,-14.459894795825319,-0.9266243181320414
3.1289329484470425,7.1179385007027305,3.4906447213940313,4.226238058693464
0.9875467381541674,30.248770424284952,22.135503849571208,8.19789873211083
0.7119726804237784,37.028408115445764,32.26654157136773,9.3101573332427
1.055016952670543,29.833597965614008,30.666880072312324,7.5464138392486655
0.778231863431733,16.640633824405146,20.721538509964894,4.106547351625703
-0.5057445983716506,5.029510029555722,8.56189094569887,0.5272749489143852
-2.4583268892698786,-0.058376250012323175,-1.445842327905169,-1.76970821869407
-4.392505054884051,3.124521625293018,-8.943331968401589,-1.7740574264897975
-5.465652664861395,12.258056683834948,-16.11112365223163,0.6095506734397079
-4.903760694682836,21.834620732588622,-23.246610990783605,4.353000328945668
-2.376566888228283,26.709021952578876,-25.732107670722048,7.867688313353926
1.7354271055602175,24.74308763294723,-17.194969401864117,9.801257111588988
6.3585473041171205,16.050379811200266,2.766559626647164,9.35180412969861
10.012289841910114,1.7000569449747673,24.82599946713359,6.354755610944513
11.426256823846554,-15.215073283488795,35.88799032698677,1.6588984881523992
10.360215238269468,-28.71878993533425,29.840100429482398,-2.731795141154836
7.902199416391417,-32.86628928634238,12.673517941790026,-4.644657560184529
5.608290801720811,-26.212011801823852,-2.526621565319278,-3.3687684128418938
4.108782251499788,-12.788823007512706,-5.924320254495132,-0.2918299676139988
2.6954224799677338,0.6935039921146487,1.506589087429908,2.1321475225121707
0.4053715950226237,7.749030966717995,8.591403641500564,2.016485229451662
-2.6813213416535095,4.167627542689365,2.9474043760669795,-0.9844502660082339
-5.415532664853051,-9.116579837292209,-17.690564330800576,-5.5751694010164075
-6.693081360939492,-24.259895470303704,-41.691321972593066,-9.391515998036155
-6.371030866689785,-30.504961958997615,-52.27455084536706,-10.279777851543727
-5.203210676616285,-22.73707740186006,-41.7356341605967,-7.815993776244549
-4.152935278196363,-6.147260653843734,-17.76523583054748,-3.7403199822185726
-3.725497707878538,8.275391812571597,3.648215975211891,-0.601645914636887
-3.6919411902133126,12.600403443549148,11.034821859911347,0.2027936995927025
-3.462390691875467,7.058340044829607,4.730357410739363,-0.8374728209028759
-2.9909034084470565,-0.8754148982851063,-5.158915140738068,-2.1604377646608737
-3.2491863701881583,-1.1058189301533523,-6.505591390960413,-2.3316531594482055
-5.315266793977663,12.456732100939448,6.415800935465438,-0.7481157145519925
-8.752525665252179,35.9094602421075,28.28528693210512,2.1243785024388293
-11.27581752093486,55.89068020564302,45.75032371764467,4.955962179265739
-10.484610195489166,59.16656876255732,47.52719251269003,6.401008666388236
-5.929296838866996,43.43227703428787,33.64371875836873,6.113549352690406
0.6551452148657732,18.16762173570439,14.870666122583577,4.86338654442846
6.885138639262951,-4.742171802360694,2.8086683938712276,3.588027626010863
11.145264355407289,-19.573929607257387,0.7212245253510502,2.5446038250247485
12.737083372354169,-26.721440577978452,3.351591430115673,1.4476878738038983
11.395423115558465,-27.852137390810483,3.7756748994345686,0.0740676556486792
7.211082676497765,-23.533724513269924,-0.4607926134219201,-1.5093603607261004
1.0415294703867957,-14.285521379161239,-6.498787420319043,-3.005035036189056
-5.238804746260078,-1.899044008138136,-9.701966536707742,-3.847263118560362
-9.187862247017788,9.955112331850499,-8.347881119741261,-3.401632748910183
-8.985265823544784,15.670055858378861,-5.948384753218786,-1.7196853151199363
-4.756742907914849,10.030559371053897,-8.583147384089095,-0.02761514032933554
1.107511255901578,-6.777282915135041,-18.700669654180867,0.09664007419930352
5.359780662615443,-26.582071374584384,-31.543690164686435,-1.6950026146461243
6.166485486066003,-37.936423562447104,-38.686606422794796,-3.9650595265377837
4.258273859683626,-34.65191385918649,-35.23098974861061,-4.663550618711142
1.936560801556367,-19.619185431176003,-23.085819675186773,-2.784374854769515
1.0501795514601975,-1.1394469712269537,-8.132812973953175,1.0054031831261434
1.8413585924717015,13.060279185080987,4.07418449919319,4.977054295130035
3.3030188250207027,19.368561469754454,10.325268420099585,7.520972623932935
4.239441931853331,19.497920382555836,10.610279882465056,8.244855270021553
4.087101176692775,19.70915056038213,8.858002303443653,8.311716529958971
3.143981988666084,26.379421475518992,11.158711479813293,9.420792215760782
2.177821862089774,39.59019820649207,20.528049184747704,11.969371675177012
1.6359887413389624,51.42545142760498,32.8373693331057,14.230402224770758
1.151587496661199,52.26869431919624,39.01348688920443,13.696066573644181
-0.016818228136474003,38.98767278550281,32.05490469941138,9.356102657912688
-1.9931554140069945,16.761830836899318,12.51699609784805,2.6133029886850805
-3.90495575639433,-5.623103190261821,-11.53657540267803,-3.821386409548914
-4.596759619071267,-20.929236447832423,-29.124847565456122,-7.680451058727449
-3.6017568919917684,-25.817752685186136,-32.38958579377862,-8.157372506126007
-1.3971453541929983,-21.603339944630022,-21.010789558282095,-6.0224305899467545
1.010271499493459,-13.629646387814812,-2.229906075937422,-3.124222355158657
2.5793629852360507,-7.95430807510748,14.117248267459503,-1.3724475240800396
2.6611412188250116,-7.216290408081571,22.055711564383344,-1.631403336148042
1.4290715535369927,-9.92215252810279,22.317432436203134,-3.3779556185231963
-0.08555213875017408,-13.266810210737647,19.957171283925764,-5.348331203876973
-0.7705275444223488,-15.103044224551343,19.661316661070856,-6.387649863971674
-0.47799047625666913,-13.449976945558936,22.419180723486697,-5.865180814531408
-0.20283683607351502,-6.925047056524807,25.0841798701692,-3.9067797922269576
-1.1246819218345139,2.5688658985377946,22.838878344220184,-1.6368192562839983
-3.493631253380346,9.214073369218625,13.528547469139827,-0.8200581706083874
-6.368111464705219,7.568442288460819,0.6026321661275317,-2.5935145379876614
-8.247183236162531,-2.6473737001202657,-9.199378403748975,-6.367671036099128
-8.022941792180989,-16.86097699761927,-12.423014404560037,-10.189056426725983
-5.712814482072849,-29.544258163929065,-12.56110562148143,-12.196559037732747
-2.5188963273361002,-36.38085407115712,-15.549624553197512,-11.613805031022187
0.02351151845624295,-34.333779285855236,-21.875434868856352,-8.664144835372515
1.2707238980258202,-23.159515815215038,-25.29440202246372,-4.184037514921547
1.8975539756302617,-7.603203505940826,-20.256122003479074,0.552418983088963
3.0267463950686357,4.626399742904058,-8.993131233215824,4.259211070430757
5.005605696337897,9.055365893654782,0.24770888530692928,6.432924797419026
7.102906881017828,7.9149409152157935,1.420407630714193,7.594401951171737
8.190490110505197,6.799273571533657,-3.926851293443491,8.445848785415599
7.474510057074344,9.051220506084075,-9.093933228325023,8.924613989511839
4.753084735817586,14.000417751188825,-9.2726706411803,8.35370450633089
0.47677163916647886,18.897757723980316,-6.356890316045849,6.38679973618974
-4.208044863338409,20.95870785900855,-6.992491665470033,3.513593078940442
-7.733044336550493,18.656275186141787,-15.081315002248786,0.727466402703364
-8.781931706458902,12.924306852366627,-25.7402195486143,-1.0357395214853222
-6.894448630989378,6.8073354388214895,-27.904867673722112,-1.279298065327641
-2.644339042686434,2.67854665881419,-14.534278332441362,-0.21046611200248377
2.4661712841696994,0.34439723913315806,9.605180639652483,1.306246648996589
6.334550712335954,-0.935162082916788,30.850802152982205,2.396702260169161
7.110755391508721,0.22689021707200085,37.1594647588424,2.896746240585314
4.4391402801969315,5.49671215832202,26.035279825214356,3.201540027917848
0.04548322547191071,12.466842312315832,4.435676650178173,3.4248556874475096
-3.2035842473097005,15.081756156822172,-16.38198706092247,3.166991222707366
-3.1960212963127623,9.996612714131206,-26.340227286034963,2.3430358777727163
0.11209432116155729,1.10006196551818,-20.82107887123995,1.8240188689591412
4.839826150514378,-3.6999760781332007,-3.168502431571561,2.7628498554018397
8.401584047842592,0.41036788232550714,16.573938472219606,5.320678883094792
8.9678695079536,11.586118597882754,27.32570410377331,8.326356846019063
6.492779897344617,23.169624936989543,23.633823247999768,10.14407702970677
2.706149397017689,27.933970650474073,8.625233874579475,9.723585357629423
-0.16674941339550148,22.376190738943876,-8.372149047085479,7.069285318425062
-1.0975042556623242,9.458058534819676,-17.615275491790342,3.170819268592549
-0.8215790582418239,-2.996419546132744,-14.865253398426825,-0.496372920498283
-0.7997327908767754,-8.534200868006232,-3.931999575584229,-2.8622703327688828
-1.831520996370924,-7.180202639097845,6.633187518252594,-3.955465684239061
-3.7082991288786453,-3.59265158548715,10.973467739684475,-4.600627693564629
-5.779391317217423,-0.9157560476512056,10.904132552447395,-5.3623024773273045
-7.4174252641611425,1.6509886446520627,13.066429328049672,-5.982135568323192
-8.082834882239508,5.468251841447448,21.024190134793873,-5.89301525965263
-7.43684327547599,9.25413844812918,30.90670443127642,-4.9566796480746325
-5.566941836977698,10.382950471281502,35.0654657201288,-3.497165081090417
-2.9173160322241043,7.7261704347241515,29.252869778021527,-1.8946021582912944
0.00449251199792079,2.1756663104814686,16.096242371066662,-0.44536332459880335
2.5929247205322943,-4.0081267952437205,2.854586746985062,0.5711504537888402
3.848290304091137,-7.111561691225409,-3.5396498434532204,1.0313573551992907
2.647135091981559,-3.270267817936509,-1.015662074536457,1.0932751517822141
-1.1880029026343801,7.351604026979644,5.612147747835975,0.9016280728573757
-6.091533660617192,18.10456779992458,7.388822376537364,0.273947076528451
-9.35275495631732,20.221004153862904,-1.4016231242945727,-0.9573996732141175
-8.79978947726664,10.660521531888419,-16.971415091370453,-2.3150136642163868
-4.172381234011663,-5.254772189362012,-27.88168367294816,-2.8036990459806495
2.798342579615843,-18.89408451493238,-24.492071842273276,-1.8254167887687232
9.476297925792432,-24.803541747502837,-7.3125014866405165,0.2851075795453985
13.780491283707587,-22.84616773928364,13.159034986680998,2.7147620630019773
15.11720043846611,-16.60471962381042,24.104384422156826,4.826058893987342
14.178082741781152,-10.8263783738024,19.009738236037066,6.176206073947154
11.841530190844832,-8.746141775208294,1.558523893856393,6.218336835153356
8.308836208145783,-10.413640516808053,-17.401406706714315,4.352653217323929
3.3644138133931256,-14.199375949485535,-27.987488665371526,0.2283258252616625
-2.725141586358695,-20.160995673109852,-28.47764387957028,-6.087965557811813
-8.899033364577114,-30.06861655220063,-25.178288320792515,-13.893609535518477
-13.87443971208928,-42.82784155254683,-25.141918047843138,-21.41992055240202
-16.7311578713085,-51.680488114834446,-29.328690163854304,-25.907668809979974
-16.92981488610636,-48.58586005063525,-32.794328054494315,-24.905461867281915
-14.238057720276078,-31.62725414104542,-30.25565593845437,-18.02954903392919
-9.053431304645214,-6.992401701497984,-20.48182841060157,-7.495161597648893
-2.689189298204055,16.015524660568705,-6.175750445083247,3.137677641804304
3.0329384031544246,31.04414689985515,8.841907614931978,10.875896376533174
6.7108954294971035,37.2379270934202,22.238066121501433,14.569119477984463
8.058781009662578,38.41711260014848,33.90026728145028,15.141055997449701
7.9285183025019395,39.805520903499435,43.98335025991064,14.769447016143594
7.691970484051358,43.16338497483579,49.549192025318376,15.207792593930195
8.245885268769763,44.39878706471919,44.29013820282169,16.347735579439806
9.25560668853953,38.00769848152563,24.46033533356438,16.561799530917682
9.476535868098898,24.806170051323587,-3.6886354274758086,14.73020327781466
8.161624285763498,13.018320125242555,-24.662816987773443,11.673867243527004
6.1275694675941,9.690643805703369,-25.202467320864823,9.193868085662096
5.045944460356381,12.312121476328782,-6.187461841591546,7.864704846371235
5.559897986311591,11.103927298400787,17.403743587409956,6.2918390517002445
6.4567297571670865,-0.7479787122727758,28.515636948026906,2.702679545947593
5.963543931078565,-20.4697124512635,20.25258829883644,-2.947702901315184
3.6116748754917443,-38.28304638895244,-1.5721964518785014,-8.511224157522962
0.4844044133291339,-44.741285869816885,-24.92838165493459,-11.191867212824539
-2.2392155419180018,-36.64057330860231,-40.063256153651125,-9.815557073777681
-4.564136789899772,-18.995181194646293,-44.2127310077363,-6.0586031466932795
-7.390509336387345,-2.113130840075103,-40.60082690594373,-3.4322287634188164
-11.17244444876185,5.732866424509044,-33.387931372624266,-4.445579898003021
-15.015140413910537,4.788568884184898,-23.30460740800677,-8.302673107655776
-17.09199050766461,2.6670168101794864,-8.36829592613851,-11.508624614288777
-16.055811888722264,6.366929758696274,11.411937027625463,-10.976132601539595
-12.271468543439237,16.36193576375471,31.240922600440197,-6.5139867319275115
-7.716354545742242,28.323030044981554,43.927130467572546,-0.40435607956473163
-4.472847825504503,37.998687904296375,44.32801922776417,4.8753655703501755
-3.13487822384034,42.82887432106835,31.690633112087234,8.171097242136542
-2.6244208687341057,41.15202017616355,10.028946007742011,9.529749427641244
-1.4394422503665874,33.17586284731929,-12.009388576340264,9.556328511449752
1.0544017020358802,22.612537996647983,-23.502392636035317,9.085976349750819
4.345914997616923,14.734694645565062,-17.482036147618803,8.822097689808693
7.264167158221722,11.792262215608417,2.960076483468718,8.759441448944306
8.58041349500871,11.3053911069348,25.356673722091347,8.085260462171398
7.637064959449867,8.942203886138762,36.105534645531854,5.945393340706791
4.952409403959566,2.0880716025949377,29.490684530188275,2.343875631905677
2.162097410112986,-8.72097175460121,10.638385050801675,-1.6773588003881381
0.9224813141766918,-19.580548154260352,-8.4771774925346,-4.528333217717258
1.6619449019583035,-24.151288635103732,-16.443503074948804,-4.784253244527496
3.445995511512966,-17.630956232289243,-9.113586360556011,-2.0081071839331477
4.918035998304274,-2.050895863984926,7.932738942617098,2.556231072513806
5.124846212826252,13.209701527748264,23.169784565665815,6.196375037410167
3.6191700261154507,17.89054994971768,27.092657950724732,6.18267875748318
0.3911239257410125,8.128853155520025,18.412802559839466,1.4513068881988773
-3.911725068891077,-12.187347845826585,3.8348335550808366,-6.814170018011268
-7.895639756464834,-34.996628006057094,-7.4041350470377045,-15.804573403140822
-9.90712417988574,-51.64718106679956,-9.351455212784073,-22.117316254711454
-8.775435176112342,-55.69005573148574,-2.298921275266365,-22.941523466458023
-4.317574042017152,-46.54381027419246,7.459617200321381,-17.539863332294132
2.4111389922084587,-31.34829141979069,11.033110228343148,-8.217349115479383
9.158290323141312,-20.409637310799933,2.8925028362641854,0.6539091393941319
13.263956743951452,-18.66597552266141,-14.362439025560905,5.432675240190802
13.175420882517574,-21.937351308654904,-31.344464717882488,5.550447384659387
9.484572570416638,-21.7500579020224,-39.045020750118574,3.350392168719361
4.3311344231477,-12.824092568511658,-35.170363972084836,1.8510865705957589
-0.2590568265210518,3.747866110752575,-24.068409186244285,2.5492310758473438
-3.3501857290059154,21.902186026677594,-11.890151267731849,4.77135349241729
-4.684650955776676,33.69420807119071,-2.4846772734208926,6.620084985115398
-3.969347724924152,33.42433637509432,3.450200632001048,6.675627366029235
-1.039314055902687,21.886162510571022,7.157203098987784,5.212781749167827
3.372730834126364,6.658877182378687,9.92211658926934,3.837089613893762
7.384838098696046,-3.439411948338039,11.447862929314272,3.7633326773385143
8.74646777757422,-4.461527083760035,10.255131714595064,4.566665896933435
6.1902516869506,2.195543180377821,6.406944356739087,4.875056166831504
0.4784594873873249,13.283628578969013,3.020846142923627,4.0887469699986845
-5.686139972478639,25.070547560994846,3.3311197504543677,2.917510763233935
-9.197839927342992,32.31351393007576,6.232788971907499,2.221770697835608
-8.681458329344062,30.053065472382027,6.533121810414579,1.9207129297532297
-5.46382910785428,18.68109144454889,0.5055922102961111,1.3846145819410496
-2.3991666519918793,5.665144869645905,-9.734000056987798,0.5325560082922778
-1.5901695773212663,0.1869803604092435,-18.03038248680968,0.08267599552353048
-3.022108034570436,5.773670345962029,-19.791207445912686,0.77869311457336
-4.97978409066044,17.80532705154671,-15.74644926042714,2.5932653175835614
-5.479914492937923,26.707388313857937,-11.204589143809176,4.544534459451085
-3.5900121266201985,23.645912869409976,-11.663816998400154,5.091817760546688
-0.011468356019919761,6.335461249205894,-17.43754319082065,3.0516070557323096
3.388854688590149,-17.83275800690216,-21.702193196496104,-1.2560423606186062
5.005610235638612,-35.438821886546705,-15.64145218375646,-5.6642356498082815
4.835031733436325,-36.91438698587471,2.2616581866970633,-7.445332043982075
4.338062889474518,-24.012626128523106,22.426294778719306,-5.368123358311574
4.80364465764827,-6.896384536344955,31.82061590585994,-0.5869092261655723
5.926117138042618,5.729647702061316,26.387832912208587,4.365959503584724
6.107176822893922,12.441810374095613,15.033185833438445,7.260988715728543
4.021462863796245,16.18281153543299,10.63216704139898,7.097568542294309
-0.23843402952392823,18.569115939800795,17.557623912914654,4.127144615903178
-5.323488196608987,18.33984187433938,28.254135252686158,-0.4950806290511647
-9.581707613740779,13.789918110300423,31.192059959215698,-5.247500747515226
-11.91326478563688,5.2573107296423025,21.68357773108065,-8.88376463256789
-12.089693908182825,-4.204535384831723,5.876611517264016,-10.745144217753403
-10.52315534279991,-10.097865081212069,-4.788014525258128,-10.586881029863724
-7.801545702105328,-9.672317919452912,-3.504315013143324,-8.499235049228858
-4.549106562168478,-4.7914113273077685,6.2022235406563295,-5.264573828193207
-1.7575929491031235,-0.38489663096263754,14.247024856939936,-2.404533181431227
-0.8075804040891016,1.1751999241220559,13.776897943477286,-1.1954557808097277
-2.4308140248047496,2.9027182712898356,7.179121473180864,-1.457808727996105
-5.412554571552713,8.70199840156734,2.274016424747074,-1.6519965455779777
-6.889089601615766,17.08025682171041,3.3770596454536745,-0.35735323518132445
-4.635340086758406,21.6581925723887,6.9947564350190055,2.449253672060271
0.8005572989588358,17.711386888152905,5.602708524887433,5.467093976874953
6.447427276806501,6.070057922623328,-5.66504016478687,7.0357790823089
9.412343263386882,-9.238547113500541,-25.22045346526048,6.06230252843242
9.00479411346821,-24.30408613535614,-45.241286379637124,2.6536543645504347
6.735504565056569,-35.404956982523316,-55.15693243800249,-1.66863002568949
4.73385976816171,-38.77053995551438,-47.93912502056144,-4.662233159353618
4.186396893156665,-33.017625243245085,-25.9897556052722,-4.86122809522236
4.828198342989212,-21.12134519924486,-0.7432197850182225,-2.569610347422377
5.6089150334460145,-8.3157822553374,15.381120035200603,0.7152988308748089
5.940139728116181,1.5569143445974136,17.689073200129272,3.7315342110006977
6.3834150213634775,6.947637745856209,10.625455134575796,6.141250900581375
7.932074885931612,7.621971920160782,2.102256406700836,8.085531940614732
10.495731209954458,5.007664348315892,-2.501630074173629,9.553876980255213
12.320148423275626,2.7995068102676415,-2.102519179703849,10.24627186660725
11.226279986700014,4.682091222761789,1.5810976733324866,9.730172875800895
6.575457122736538,10.762786873753925,6.186345190301663,7.717045374173224
0.13039386539420197,17.445320723248443,10.37302421327,4.559879309588953
-4.899444252133783,20.92075559022692,14.322791151819741,1.5344443375439005
-5.920942329048638,19.663930779764033,18.485480115746746,0.11061524676980773
-2.8378749148974958,14.03986101285692,21.683611922862553,0.5488795773526001
1.537432356102487,5.795273553222715,20.940972066902045,1.4515118120907617
3.247822189937054,-1.4439789060081736,13.651564434120255,1.0902976018652895
0.23220743027036644,-3.471481989527352,0.15143341595997686,-0.8634950871342708
-5.865788681768042,0.8395810252633977,-15.218715773559579,-3.1336374264289217
-10.992070081109555,7.96477192032105,-25.053114536831764,-4.21484106588758
-11.990390018764398,12.91996509509547,-22.157032578223138,-3.695637731216155
-8.8000036178147,13.239117420329203,-4.936899092277478,-2.368785102391018
-3.810235918339037,9.158140855645023,18.65170828912423,-1.422850610762584
0.34654693144875615,1.7817827451654262,34.23745230750023,-1.5364034941559226
2.2695838679904283,-6.654428255169698,31.604987531809577,-2.408229885168232
1.806881171976288,-11.722667336272345,13.909352776257693,-3.05577615258612
-0.5252159892234906,-9.205743323706963,-4.359994634337088,-2.82541852620045
-3.913309753639035,0.338441099221721,-9.744113352741426,-2.1839927875639344
-7.3476184010467485,11.02126465201108,-0.7915402593002195,-2.2137150446400833
-9.648690733262006,16.53973109462435,12.123758709836043,-3.188770034058039
-9.627567881354068,14.786935521762317,16.476837354222113,-3.9875263326136574
-6.652472118322844,7.748619494682332,7.523955475203979,-3.2242202062607195
-1.4742803767066173,-1.0200344979683853,-8.828138737614644,-0.8124048855904035
3.634641999253366,-7.942607370259243,-21.369063060701958,1.835147337240686
6.176521440881587,-10.703029143963017,-22.96229062194667,3.039388687839661
5.31863762616838,-10.141285077238349,-16.54204644170936,2.123961051167034
2.485447596860272,-9.956388490517277,-11.927166115141832,-0.2674577452719643
-0.054171017308547516,-12.696056516658247,-15.826474738642323,-2.7257718093952383
-1.1746886913571035,-16.554260249906662,-25.11601766889614,-4.0810071738661
-1.5602741004265335,-17.663806000137836,-30.51979099038104,-4.3328955376449345
-2.676206475172691,-14.90412452072455,-26.287108352130737,-4.643152722398915
-5.167586778507152,-10.555869567477302,-15.2862208167763,-5.978006322613024
-7.977177558017338,-6.503371055513372,-5.11765621900837,-7.583468602774807
-8.823823815600301,-1.9625186498278966,-0.48869311636585366,-7.190459007485662
-5.853241145219233,4.52869038247101,0.7197371376880893,-3.1140440377313334
0.6451527745616135,12.551664062788213,4.940605134613528,3.8671113415889518
7.957045256776501,19.903175020650085,16.21571538306516,10.782794394115355
12.584062599918465,23.942486928460582,30.47624030004898,14.49375855973474
12.512748867033721,22.49754152605711,36.540473304276595,13.600383774513821
8.27401956319762,15.268926402323874,25.179488528690825,9.040369918823556
2.2761314476772974,5.426652198198776,-0.7914305258170962,3.3741928711051483
-2.6649460627738795,-1.7305417813608013,-25.895110885320523,-0.7601821474867549
-4.625632448089685,-3.3349566244106406,-33.245869503055104,-2.2121244290773796
-3.3501656388008696,-1.5177947479021037,-17.913321031316386,-1.755017040622781
-0.23821206124004413,-0.4275780112881638,9.600023895302119,-0.9578403251619741
2.6660522410001337,-1.7013454948198743,31.899050710234096,-0.6629775124490834
4.072291853430451,-4.11395692450359,37.113728384923114,-0.6729325219097333
3.9870692037379296,-6.4186481852667905,25.923545309345354,-0.6597003224034813
3.0283611130588093,-8.3394922697482,9.609291230484642,-0.842395165018709
1.5747823577356135,-9.189612458859049,1.3168882664320682,-1.6252786899013407
-0.22573862023436636,-7.909747215783166,6.27654403516782,-2.938472783012581
-1.9459479642724236,-5.002091990400385,17.965226236076518,-4.1661093181009345
-2.829862754461903,-2.5602935829504276,23.83700527125104,-4.507145514731739
-2.279823471127486,-1.5802532488149512,16.26794636503913,-3.28887783154001
-0.20236733779720656,-0.7102095834216045,-1.0283772936759839,-0.2928225969265269
3.016825270851984,1.6200658157053718,-16.59447634094321,3.877647973201127
6.5755240957836625,5.387136520952678,-20.532734193841403,7.939577441190856
9.363650249100157,10.089160986529913,-11.157708829498192,10.79424783783799
10.4813375885394,15.678048235838988,4.715444230427732,12.21279700203638
9.91356308171653,20.703650834558726,16.161019077775784,12.49640045963812
8.491986970806963,21.320308480858486,14.638752193891508,11.712235647933893
6.966087604194436,14.92992762970182,-0.11652784419363625,9.673131234853033
5.189729310312277,4.4399882478971415,-19.161677760102158,6.522782746923726
2.3452663385985244,-3.606373367172171,-30.731487104252057,2.7843776389426584
-2.080853445741975,-5.622763172843454,-29.16037207987959,-1.2513625507904196
-7.512361244743928,-4.079558452215124,-18.00545052949541,-5.640636324660789
-12.24010722952721,-3.8459356114881076,-5.244220369472315,-9.997011851911445
-14.213408399887143,-7.090291485035535,3.3685036904089607,-13.028102003619821
-12.493730535181617,-11.898245465943335,6.867736826962748,-13.394951740261005
-8.495008587338207,-13.857883427743896,7.645467617781712,-11.017879442922702
-5.52253067173418,-8.545444495376827,8.645390087248327,-7.274949813709311
-6.194144732607745,4.838617426008479,10.421590975809268,-3.9377058199673827
-9.762661341339616,20.27786125467766,9.65542220017127,-1.999973397917774
-12.227286269871174,27.201852924808644,1.727681146090367,-1.266564997361452
-9.67078021611979,18.99234257137565,-13.705726505746739,-0.725130845698228
-1.8753558677065516,-0.293119529834984,-30.224167320332473,0.5538470715271395
7.177288946792665,-18.8579042314111,-39.04317373558114,2.4698260166588555
12.33789180925794,-26.74326620044683,-35.88390320859068,3.8050359560468876
11.14218857694623,-22.07326052308214,-23.06126282322931,3.41712714626424
5.386815035937677,-9.664096172186479,-5.8968574745792495,1.5937246424486131
-0.5632050316606713,3.8246553774287784,11.396110301520299,-0.0652360570332204
-3.1946354984685454,13.662673893792087,26.87250568779698,-0.18373906697456643
-2.2305556154350135,19.00999987266719,40.00108241026713,1.2340148511917555
-0.13372779423766362,22.499560445093014,50.191640645927016,3.1538550545236816
0.5526765823532673,26.445005804351098,54.9198700235038,4.517869291739008
-0.6690898432401264,28.799548453471914,49.285421722437576,4.678002624588052
-2.5559312560768994,24.668215984135955,29.844698353695915,3.354329140884055
-3.9533637766720036,12.923434369601223,0.8733553354425955,0.7916799248082282
-4.756394841074089,-0.5471940546354506,-24.41520413806045,-2.084670249208844
-5.137137898348193,-8.225468423557157,-32.06457103075594,-4.125631899949297
-4.528023232480223,-8.78358452034703,-18.76430429791953,-4.7355381628672415
-1.9729057150712381,-7.75491011895467,4.759232718559177,-4.104835139661779
2.508296799639288,-10.889845299221854,21.881506720969742,-2.822488769181189
7.21696976072199,-18.44863419975883,22.136022524084204,-1.533528516407904
9.65934118240253,-25.602782767219015,7.3047400592002365,-0.8063756401336307
8.376603537877264,-26.69125134283372,-11.726168539111578,-0.8020272162559924
4.308809400551147,-19.494297732195452,-23.671366952952475,-0.9218261410173142
0.5224859329429616,-7.6775594140088135,-24.715560983226617,-0.2019148445078242
0.12246404945803459,0.6261994501084542,-19.993597636387577,1.6353086813109623
3.695151839084931,-0.8505499255977471,-17.490023454475267,3.717470711109414
8.543593014424912,-9.985951254756731,-19.80302276402112,4.819111611323278
10.729854199046125,-17.180874426010835,-21.791863251727843,4.4693162150809504
8.230721511661516,-13.93163342938315,-16.194960837291266,3.1701361038861644
2.3723771009932846,-0.07316073024248956,-1.0786695333824994,1.837482942839852
-3.425909425311721,17.06711841016872,17.710979719741367,1.272444579876891
-6.061117338126892,28.359302035115498,29.778261474314466,1.8132206994675115
-4.42502419287182,27.180055341716844,25.872815319401536,2.9608446243733852
0.20621042685948054,11.864583908134412,3.7376640404311647,3.4149008490422585
4.852080482427686,-11.977681966846326,-28.193982429061265,2.0201611310458465
6.411116822169782,-32.22575814399478,-53.36277352646613,-1.0931985873950312
3.5723327087624592,-37.44020404214526,-57.16784833887813,-4.5159799493241914
-2.2613025377404257,-25.761020192795755,-37.81061233580115,-6.7633732158239175
-7.928034590158799,-6.2591359850627075,-7.969103246377346,-7.280518750939962
-10.629689082250211,8.979461305926312,14.836587998191797,-6.350306041482794
-9.58492371917251,13.961136417112535,20.789622455948965,-4.4928326009728545
-6.246231575137584,11.545678689967104,13.162019453074295,-2.1768351996701556
-3.2228565172828265,9.848637717463392,3.737586338637297,0.23655591259614417
-2.550569085387232,15.97187435825471,2.98357400119971,2.6071317815137713
-4.224064413594455,30.100604818523998,12.26557980393658,4.901002195186559
-6.151139726346408,43.71909653116598,23.625820840051947,6.711758264662531
-5.9434616364432,45.428511112125584,27.45702686943302,7.114146422569783
-3.147908960616053,31.17617036070815,21.669399008089897,5.391055317371147
0.3167801299648351,8.854128124980283,13.639387210059784,1.9342611230129565
2.091465491754658,-8.312700246947688,12.772882074938257,-1.7545724770550906
1.7394326407379062,-12.727708946939538,21.27559305656921,-3.904385760717849
1.1741126455761126,-6.622036031900616,32.50695192115557,-3.2845452219003377
2.789751805186411,2.607654848573098,37.815155328314766,0.3044349763372838
7.039084065181166,8.933361018311084,34.18465764085951,5.623059775418741
11.567283584331918,10.49367602403372,25.604427413867064,10.076546113778862
12.77613575867324,8.93005564752912,18.15806487322858,11.029171270748783
8.80980699655637,6.987785342230755,14.00495608281233,7.7502141009283445
1.5133516125878042,5.370863665276313,9.416976505867899,2.0902493341171255
-4.667863304445862,1.5640881326815115,-1.2099046037520012,-2.968582424356206
-6.218791624665847,-6.735432143370708,-18.288158633526496,-5.434141224288062
-3.3104280850277115,-16.746597820544086,-33.83002123735971,-5.153994671062211
0.8074606566814462,-21.29854333708896,-36.987849837778846,-3.187631402915231
2.904087805802591,-15.842272274951466,-24.310759651618028,-0.8543873380468205
2.144783470007522,-3.6540753716709906,-4.171847975810356,0.8157760953780245
-0.13610834584115725,7.034207716711746,9.893040991151828,1.3087944687510682
-2.2283465228364783,10.010366897868254,10.248394638448367,0.5909837563865576
-3.3618622223890307,4.442969851116458,-0.11770089016295265,-1.207078167863419
-3.7947627751878463,-6.520584081064309,-12.072948442186547,-3.967783814801433
-4.215796357306126,-17.888913668255768,-18.114961742723406,-7.240965981900215
-5.0781501604436,-24.4539820612566,-17.03379671212508,-9.907677659690703
-6.188442781862508,-23.4716408351716,-13.451978672200966,-10.695818231491872
-6.837585894688489,-16.83335611071217,-13.32176435537732,-9.227523371498677
-6.440075653631188,-9.197317064511394,-18.511381376739966,-6.314605024367605
-5.0335744989915945,-3.5347048677670867,-25.279732594228353,-3.1193176736911377
-3.1019090725926453,0.2680533903126486,-28.740364117039487,-0.30406700830649985
-1.1147419281631796,2.6804307159950453,-28.425078597084404,1.8848224248985177
0.5095040413482868,2.907708802317846,-27.7931245548274,3.13192832222783
1.1933124609563286,1.0941639424399452,-28.061528936957973,3.1278704803295003
0.49287203452201395,0.14681723698217786,-24.624300016647545,2.0866393416633975
-1.1935810394839026,3.503350610464904,-11.234978674654002,0.9018578267430792
-2.513237493521464,11.83135752293711,12.736069739556942,0.7468459270197186
-2.0510726626385334,22.86232544636886,39.85109319516671,2.5201077819628814
0.6419702860245428,33.08017832879082,58.644255463582006,6.297064754733904
4.811808753358682,38.18839246933609,60.01877806931493,10.855439723653001
8.96623520375202,33.737120125865,42.24951931069771,13.871321853381062
11.52547336488279,18.411232200988106,12.900951806431495,13.25234952836292
11.539703437300311,-3.0057576476620613,-13.97590936250253,8.745911861987416
9.339434309946572,-22.01932130721057,-25.49435295053247,2.241227030715905
6.484888307251722,-32.53501100179008,-17.90595380340646,-3.5369681781054356
4.7082073762370085,-33.84832116345226,1.4837942983098396,-6.580023922892883
4.697310224985295,-28.432092880183355,19.77081302029581,-6.226106424147182
5.83005518296747,-19.247083075228737,26.323721666451213,-3.0983980399650717
6.836444327868735,-9.523747038886984,17.89158102454269,1.1111784674629852
6.548213000347948,-2.307119548643649,-0.3689767970067359,4.271269869611913
4.396455637643559,1.810241157485469,-17.588003266302593,5.040002180724821
0.8624753711816046,5.136963653310222,-23.39903798955676,3.7594098945310574
-2.3953440742947723,9.336433448957676,-14.965075966587538,1.9778382902512848
-3.4062300102097396,12.443120166997948,1.0467038235785007,1.0495488583574142
-1.481590854285545,11.142976337960217,14.316561419545415,1.212282586589852
1.8914304698668596,5.272048532028607,19.226675167634593,1.6794651501836249
3.8639463136807053,-1.7439964972755402,17.60355094129661,1.1969017279971326
2.1030996257231553,-6.371554709525036,14.453495223000724,-1.2851035089754297
-3.75578077524846,-6.963668741298435,12.578842890550764,-5.743650043120466
-11.90613890547518,-2.786320314657919,11.061504982163928,-10.539072266820707
-19.260227213267022,6.163637051353655,7.113767105642278,-13.156712922270344
-22.88612172500173,17.327036378644255,-1.245945304825873,-12.012740385914256
-21.333585781174264,25.430936236914878,-12.957712424519215,-7.648890717202489
-15.177585126952689,25.773162198551926,-23.390328636992994,-2.2049397714157632
-6.585020296126175,17.419924321889077,-27.042815154473487,2.0378197272140075
1.5944470942950997,3.27664197850585,-22.059917743765947,3.6685965057784258
6.718732647174103,-11.508010493342526,-12.04655472000128,2.4679371616489583
7.314007461382325,-21.075428094500243,-3.0393148387388242,-0.52880401338542
4.099267222702297,-21.507353720331665,1.012120718659428,-3.351849045988089
0.13154185842319732,-14.23306400110695,-0.06267698978357511,-4.111579096000452
-0.9435261947898682,-5.632792940018209,-3.888548644582597,-2.1142687752633798
2.2308343203410748,-0.8944469558054832,-7.287042688332085,1.9093070058181871
7.250579049934048,1.5339763457183178,-7.775488109904746,6.4404182548734
9.597050143025557,7.564471601992163,-5.0674481694503175,9.808744593230035
6.1927113879416025,19.63632006544143,-1.2237962947296501,10.559842868450762
-2.1393376921443767,32.9187518745948,1.6621389767397408,8.024939716702132
-11.18282022710059,39.41859780003261,3.9759632752627745,2.984789401977657
-16.158205096681844,34.54609885992834,7.931719025784368,-2.4721465486861316
-14.7214424715007,20.100990523513293,14.317213625453363,-6.101830755981777
-8.138401138689007,3.1290075225709293,20.66996055378733,-6.603514614707086
0.061773980575219004,-7.845257842766383,22.976985311974857,-3.836996209091373
6.833191903469944,-8.43975012253447,18.912651896705423,1.3603990494453988
11.425706966988292,-2.666225687390599,9.95246582370379,7.1357666699741955
14.755545602382103,-0.42641795856647746,1.5019727879099167,10.879548992430632
17.320712074136246,-8.540357834869612,0.5363701906366898,10.47335585697729
18.10711484977341,-24.044337802895992,10.416358139325988,5.803226004269797
15.576137694624183,-36.9446410680558,25.93217612554363,-0.9758670966242586
9.430710259419982,-38.76353007150427,34.7358056263439,-6.738527391033132
1.3303879566005357,-27.870844289281816,26.92706908680625,-9.080437687048434
-5.852912997887635,-8.786000972975051,4.876890512073468,-7.3389913984597825
-9.486339638245367,10.72498438424885,-17.26495656468915,-2.79281865291114
-8.591059241141462,22.617562723299557,-25.000917017398038,1.9282226543458605
-4.607512507975505,22.711096219911393,-15.0414539717,4.27838687714965
-0.7631768935433206,14.164302152678495,3.251594605757882,3.3991823539393717
0.05212057939467838,5.40640166055156,16.129653811083067,0.5449442385978397
-2.5437587058127082,2.8774787429262907,15.270069411353852,-2.099728965007536
-6.199275135548213,6.110500990725652,2.1531394156983272,-3.0034471548859845
-7.8566777708441435,10.076534405097442,-14.710098106477997,-1.9315427914402188
-6.140351041282055,10.515890637570974,-26.974633826015623,0.32343026971659605
-2.0511030178168155,5.853098251276482,-32.48946233498243,2.3954618758114794
2.2462882297150966,-3.967464389948293,-35.08938446697243,2.8988641485102717
5.180696575692316,-17.68452798963036,-38.83184165953539,1.299935541653018
6.689767714122226,-31.959957061232597,-43.26645073248983,-1.490320185555012
7.75506433777451,-42.459116929437826,-44.57379465083239,-3.7087318979840393
8.973096979768048,-46.123593182946166,-39.92659288841418,-4.192548794359242
9.423274444847017,-41.67331469915982,-29.563108193607448,-3.2395333111617632
7.1332981794922095,-28.90922778559036,-15.80193843900955,-2.1180184194834983
1.0194447659661785,-9.657921455797512,-1.994652132712585,-1.9571390837043303
-7.5397330083313845,10.79593879595393,8.05113969534211,-3.0255324020427814
-15.1916110738566,25.793998832256307,12.131242243678434,-4.621449418806398
-18.773704478950954,32.159350446750594,12.18319258378559,-5.436557792313882
-17.20084668745621,32.00334401292454,13.33785969527811,-4.377134246463286
-11.738775513467617,29.31054703807768,19.035812888738757,-1.4496914660287483
-4.946955092835744,26.154227718203572,27.28664905330505,2.168153195254912
0.725139037814237,22.75494157190511,32.24049960290759,5.095014225064657
3.9818850550009177,19.22819319516065,29.175022235042693,6.710440404148036
4.9422704749688835,15.664677491578878,18.160631508575502,7.126080325700364
4.496007936334935,11.810866089707636,4.295567169342497,6.590422288688915
3.3667383774919095,8.425916205476552,-4.838103597159926,5.358159341679039
1.8856400288443866,7.853138570362045,-3.5058925715376352,3.9831219072021162
0.6059544859483725,10.96434460262402,7.912226052968972,3.1657576417324758
0.6931293400130627,13.884132105038269,22.30342106350422,3.1187770664886902
3.2455182725683733,10.28593702942666,30.736413160788064,3.402000107213512
8.104554886984504,-1.9351227026948723,29.256024217251536,3.5413174107324914
13.379152811461559,-17.207413448761002,21.2698315553544,3.531681179707291
16.16235567196576,-25.885350028463378,13.780556416027538,3.565601668852296
14.008239382616127,-20.84375356593651,11.938591786643743,3.5620615077413587
6.49414197691174,-1.7489222425416133,16.635531454523065,3.2411604827503697
-3.930318050991315,24.193779089831136,25.243958474631647,2.4916267219406176
-12.729764025429821,44.73044868585847,33.16333483344473,1.411280507189724
-15.788856088848569,48.6436551662368,35.39683977189681,0.11558430568336389
-12.013239636117119,32.838758207490066,28.464654916060393,-1.2517639427378573
-3.8654357962887858,4.282057271345804,11.80614116243162,-2.443512559250402
4.51055434225265,-25.515356392514835,-12.167731009245347,-3.334143656183748
9.721370544194848,-47.60796399940535,-38.34111982170885,-4.176488231193048
10.302822365806756,-57.820150331087255,-58.85099640658002,-5.3701874980258495
6.643429897245291,-55.34644963300454,-65.0213289524521,-6.973396960872165
0.5565348246546865,-42.719977678561776,-52.859656081241845,-8.642299056746305
-5.331501810316202,-26.52967469365033,-27.98667858791331,-9.969311606181252
-8.729431607716595,-14.309634673537747,-3.563468527269038,-10.566976350889115
-8.984495213627952,-8.513414517975244,8.65786050513482,-9.872441554763064
-7.470773604812487,-4.483877453025899,6.318784075244057,-7.380818313572905
-6.546843276606425,4.535415301820963,-3.2512509065907906,-3.3645356650807914
-7.698576107588193,20.505265319631697,-9.574954273832338,0.9270439846430202
-10.093711648613878,38.04312106244895,-6.897536498482288,4.135710682224085
-10.712422343485931,47.2232064105339,1.534169984468502,5.815902319483286
-6.469051558196758,39.66380693521366,5.694067431625229,6.48920909436126
2.874356480393842,15.415839964010523,-2.83678769967253,6.921535077772248
13.569605575275268,-14.061504362053187,-22.254333946177418,7.562198963743847
20.103632592113673,-31.913339306602843,-40.08964038907718,8.405575409736706
19.195749773201356,-28.34698125314628,-42.691024631780465,8.954890979128987
12.055225130188315,-8.260159635313503,-26.18771570351189,8.407249916508386
3.137319193054753,13.782607825372972,1.0056676849624748,6.374914039585583
-3.0319175106384013,25.556369856552195,25.1462555476089,3.5780737141821004
-4.291601971600864,24.196875872377195,36.41218115363842,1.462185757203855
-1.4405647513533302,14.359855942498735,33.8811655308441,0.8672354576609069
2.560782450101277,3.2434873047388,24.683666940363807,1.2120638075564532
4.20414476940842,-2.7702671612963714,18.50989857956652,1.0875421518570076
1.3809372189616607,-0.7462122356501094,20.06653873697864,-0.544056919614644
-5.312559091279741,6.480481853316135,24.70236711993863,-3.757597609163307
-12.900220965309897,11.579142809217611,22.26377303242468,-7.794039772704201
-17.81697594864867,8.584521672132023,7.313286450188896,-11.366897091500208
-17.901004516747953,-1.7933824273512822,-13.815756093342802,-13.068592181058564
-13.43974270488143,-12.573172290567337,-26.838465144963887,-12.018119379438753
-6.896824113170681,-15.48978267430722,-21.16589298442252,-8.341580861522205
-1.4861376065228846,-6.0781684022128015,1.354824367233105,-3.0106861164571956
0.7462104624121418,13.376230237224414,27.915922681137857,2.6272086973415187
0.10233738072615046,33.71644485481809,44.23717431044148,7.057578092393906
-1.2809433117973248,43.19150481613405,44.01106526055283,8.837476932320113
-1.163900992486707,35.29335157463412,31.46288669976419,7.438787578686848
1.3885748439046737,13.914308899536895,15.806090618276148,4.092443890301467
5.809328122704032,-9.794007787626812,2.7063844850970784,1.2891068584520369
10.552549482985487,-25.82476643822713,-9.341370008483707,0.9306534698254993
13.636167271479497,-30.51088929944349,-24.313247226625762,2.8809371242921626
13.313069900958427,-25.457495953132998,-41.15974555241125,5.278157105705344
9.113992738169461,-14.845431154640192,-52.49363216246225,6.029340073949468
2.601175886080171,-4.610748615804838,-51.26674972133968,4.074060349294839
-3.191848987624664,-1.078392062895741,-37.848257615894525,-0.15201873526194692
-5.559671860885174,-7.081078306252475,-20.03815257684147,-4.921484829716052
-3.793791059051691,-19.33602313194483,-7.008660657149155,-8.106002079141227
0.5431138558012146,-31.049326849227302,-3.4828133542786066,-8.549329990582203
4.769264553922666,-37.164407429231716,-7.897216731973595,-6.879033058082863
6.74867304034408,-36.770944256015625,-14.170722078140932,-4.846431072833106
6.035732174859562,-31.81129410410552,-15.74259128173348,-3.8076776690930694
3.814052874079821,-25.039506529896553,-10.02009608559104,-3.8633853204146535
1.6806191444081555,-18.353815977388212,0.0842474899722663,-4.17571169950103
0.3277851880849682,-11.143959888894404,9.30315941713919,-3.6850630004622937
-0.6046438521918169,-0.5980500097402023,14.693948616780816,-1.630075542488631
-1.5231830812878222,14.412364723577365,16.935779140570205,1.9712811447956398
-2.167458486502938,29.862139947336278,17.85165114898514,5.99924949730566
-2.1822239083029156,39.2380241456631,18.140179483976844,8.745036107048957
-2.0847691519634948,40.34259188292942,17.603963574934546,9.18190848741725
-3.0642132156792194,37.50338029003187,16.11326705312456,7.7050404292278944
-5.591756630994253,35.908042486072226,13.601820005792742,5.500444786613146
-8.460295672478154,35.38741360638835,10.188311135712746,3.4186616813835355
-9.454332629176193,31.376167546007448,7.318008481228259,1.6774152160946085
-7.067954737138251,20.98093493857166,7.9486413723241425,0.35267563160328047
-1.7305771848612002,6.5035185745516975,13.979571393274636,-0.3261576538930954
4.384433493327273,-6.355482234577863,23.229844685621988,-0.1589453390955149
8.718080566080188,-12.263757000501881,30.101571565214044,0.8871214883683636
9.868626196744932,-9.025521751306579,30.081593585974254,2.7135400478730993
8.272969047691149,1.0336626639896422,23.523717430540167,4.9365056492918535
5.591421261716359,11.871425012180016,14.938034833216387,6.7102856620079026
3.410976901552598,17.513460165518193,8.80315447186456,7.156248786553695
2.430636140226692,16.06759699820412,5.779778664800865,6.195397903688938
2.584912667964196,9.704538519664316,2.2810040585171554,4.6648207656735226
3.4453073603695117,1.1507452722549318,-6.081816707239955,3.3473533416774566
4.270337511928307,-8.324220258209474,-19.444939116230515,2.070025332074103
4.072557392784241,-17.584596561725206,-31.671789092874803,0.009123767001964237
2.2519421540438587,-24.550476337480127,-34.5920396070733,-3.2259303722859167
-0.7150242574586271,-27.579516455859906,-25.36285251387966,-6.983140779721364
-3.5357544141416426,-26.423857267304307,-9.254666566566906,-9.858168893746505
-5.194793251317342,-20.67191906120256,5.380353325891214,-10.397548629610307
-5.6295652666187515,-8.901783222669867,14.206899004306607,-7.838706267656181
-5.32926268495273,8.580208971167801,18.51003191861687,-2.727880955384438
-4.602673921787593,26.92003825614864,21.05252321578399,3.077438447734877
-3.463553059257206,38.727882729994676,21.92136611597263,7.372631652885728
-2.069468240474456,39.15923752836603,18.13620880706736,8.80685580534731
-1.0354137321439334,28.23263242070634,6.2484349638150745,7.156818147833046
-1.2768114185683261,9.25939385800221,-14.056981381471259,2.735378995000338
-3.4609082939973628,-12.814808013293868,-37.384872624926246,-3.861552667080435
-7.295128624442551,-31.916882622685897,-54.088132851120186,-11.270390198115575
-11.175429305151095,-42.73747434442179,-56.70113715246948,-17.218319009882542
-12.88035649622812,-43.77642173716513,-46.257865043519395,-19.51859404589535
-11.191572434863946,-37.45164560997463,-31.523315959504078,-17.374891643102952
-7.052246111164625,-26.647584577116664,-21.423331411194145,-11.745275888782613
-2.931856750898414,-12.778122469542128,-18.654788136787012,-4.724306330482023
-0.8407581421113807,2.036421130213743,-20.009378973579597,1.328887981484817
-0.8682694519272859,13.288312513489236,-20.460242330704514,4.670833437234604
-1.4439832240405923,17.07689149786872,-15.77650714496041,5.04130692313115
-0.7619255445485056,14.118662263242,-3.5483928383092667,3.8483676801832583
1.9123647165529039,8.86918486892232,14.976679153548051,3.049049063554036
5.765343999274174,4.956267032252345,33.60283233031131,3.525968361479474
8.909892939630318,2.9993568098477335,44.000584557651315,4.6075806340484675
9.646950074454729,2.393526526667603,41.756493161118,5.135410831529939
7.779684094306355,3.0753511966713223,29.975434367952566,4.731665135330344
4.795203389297554,5.087688124116083,16.83080904422397,3.9734927913908735
2.5371676659601086,7.989380936704485,9.592984598746241,3.6244406112590655
1.6092030704561902,11.23125861490394,10.190621493949196,3.8453178162500063
1.149339781119165,13.839863604089583,14.889718417719225,3.952531694868151
0.10700329141113891,13.512351848347382,17.600860940921116,2.886782987657232
-1.438808112339386,7.977837676320105,14.72056679356659,0.2797574145815745
-2.22856179391442,-1.5420020437781945,8.223442808073385,-2.6926925789897216
-0.9426972051062198,-9.682210127797251,4.023543241268539,-3.850081789453
2.5468596322953805,-11.399315437732294,6.488393328294792,-1.8990472254888342
6.723395059268243,-6.566921002676147,14.344360595468533,2.142562417718358
9.128467606563527,0.7930793761564215,22.040121779538882,5.61001633948057
7.9136867095749865,6.79894410408867,24.57604882209098,6.301863725250799
3.2246820691021716,9.934004159864175,20.623509588660564,3.9688214517449
-2.7306832109121864,10.296049827914766,11.986396287661517,0.1794093350602916
-7.063195155944967,9.031643920154254,1.522378068057825,-2.745922145647702
-7.879953858003735,8.39201107676275,-8.520540853492006,-2.868212164612044
-5.0564791595480765,10.107721991178344,-17.44293530248348,0.37122806184141655
0.021017720012936496,13.01201632879567,-25.612924102341463,5.6083564284241625
5.210307592982513,13.721276208639244,-32.15455120058785,10.169047292072941
8.579798133882266,10.14957633231057,-33.52127665861249,11.740679648469746
9.362618837369235,3.0295350937655985,-26.43382073136009,9.740230750379082
8.207597140440608,-6.133701267813673,-13.110999760325427,5.252522731599514
6.265324129516057,-16.355910290755247,-1.8342428606882515,-0.002475183673325558
3.9442568842753607,-25.274501240663362,-0.3148052207804723,-4.494004212401589
0.7966726940910828,-28.247695857673712,-8.448636597790115,-7.19159411592092
-3.300611788374609,-22.147160273497107,-18.355686639873234,-7.796679108103351
-7.1651750019875875,-9.853006104388134,-21.35050994610246,-6.8618289051404435
-8.800415839874406,0.9329680196448388,-14.70319107817336,-5.350145773595664
-6.917827931664442,3.8672229347021054,-2.8513320489148883,-3.868838583660016
-2.0985382109729356,-1.3495049766977298,6.648132754807109,-2.4308350438563173
3.223128542904829,-9.285583300440521,9.047021551464828,-0.9377622875411391
5.915391307529037,-12.371014922703726,6.216639893470278,0.367450338339518
3.999108107425208,-5.64000801629052,5.05242822246877,0.9972126632180676
-1.7446129949744937,8.84568271467937,10.923280391339134,0.5644048597897727
-7.790074641477325,21.610787566491698,21.949136957846665,-0.9551244880615041
-10.082684927033611,22.518877209503863,30.18820979820987,-2.9715441422167266
-7.053471353458738,10.228246130093089,28.89337414201508,-4.242900538563812
-0.989431836575894,-5.381462239375013,18.65008004992241,-3.604903211161917
3.4069971128591447,-11.07968534722475,7.033736297317672,-1.1939243221239468
2.192288445790381,-0.663385218624781,3.1105564472566307,1.242657230446957
-5.059826361718195,21.23067376640196,11.307547211146138,1.7102395443439935
-14.610308489103721,42.65486562728649,27.752160286517007,-0.2515685879601016
-20.560875990913342,50.778970974667075,40.991704767520666,-3.2243310580557565
-18.563172328299043,38.659465812218876,38.48047385822862,-5.138921029730986
-8.85476200320444,10.559411254542804,16.310234587197904,-4.646356092081137
3.7185540246501074,-18.815182870721614,-15.775454917983359,-1.7012351898405311
12.84037383414134,-33.734891982504244,-40.43099334186674,2.4216323562817794
14.639910101660659,-28.995201701073416,-45.80502272194206,5.5448035340037
9.670803749245197,-12.843465313794189,-33.80332692471363,5.772166079631008
2.085912250836515,1.0765516491675258,-16.383274018974983,3.0015730422057727
-3.020006112720621,4.238345699302996,-4.696371508004501,-0.6994097988109954
-2.526664978324086,-2.5631224442955975,-1.495628042007549,-2.559505902050876
3.0481855597116407,-12.232440047034672,-2.23832417951222,-1.1757739267476148
10.212902694520015,-17.637782754139497,-2.111345101424293,2.6084339346353524
15.180095668220295,-17.24279776529036,-2.012658139524132,6.457949945262128
16.471130761980362,-16.429524320555025,-7.802817257933033,8.063848797864123
15.246517683840125,-22.132031047760357,-22.98862900302118,6.484486294564103
13.35903766413306,-34.55823724147749,-42.12229481046605,2.68310771202175
11.318643432261798,-44.98852549464864,-53.162506967379144,-1.1919215118300581
8.08154604072795,-43.297520386611545,-48.03133879210106,-3.4764502466599616
2.4740562517867506,-27.33631438060792,-30.546109037593737,-4.158441872990927
-5.289882022126714,-4.120418048476534,-12.964420847426668,-4.321992725890971
-13.180844054899822,16.86039638241554,-5.0780268041873455,-4.584676945579337
-18.269112021469404,29.74048067333078,-7.209725020632195,-4.4561174939124015
-18.533648291952034,33.37085216762413,-12.277913890261608,-3.236030708750707
-14.445495317572503,30.27055422587674,-12.288204826557735,-1.0759097715472719
-8.969691268816375,25.70134091424927,-3.1004196557241572,1.0692250865027864
-5.697895590509293,25.093927851615604,14.077939642234057,2.185813267672317
-6.517424786128714,29.897001162844276,33.70643197848395,1.6583328142957383
-10.584255887050544,36.273189866492764,49.11124238913333,-0.5610203009541055
-15.012939892343976,38.79263321478888,56.34691281301909,-3.640144037852642
-16.449822981073073,34.89647008859281,55.55149608738854,-5.821577503622142
-12.739452143312542,25.597410476188998,48.86228835905418,-5.3279581699152265
-4.235006954268006,13.655477282014916,38.08554244579963,-1.7304812261212834
5.979112263761446,2.562365499089598,25.064961333874706,3.5577523330245038
13.628868473789977,-4.117605050457818,13.140766692876328,8.147979841084505
15.907228261515014,-4.901970082780119,6.24608433318514,10.099018686565998
13.265489896611005,-2.078941762844593,5.920012411402644,8.968475980828458
8.884550637751133,0.21441275893877465,9.919878053124062,6.078071939333707
6.3470343794886155,-0.31989230341474295,14.010105479870354,3.731881932398555
7.308656492808086,-3.4500944590442155,14.536579797939934,3.4930786924410597
10.592788785537717,-8.742216683595428,9.60908164403119,4.732780219967521
13.058248705590854,-16.233104610289093,-0.28542285149072166,5.042358778483801
11.70856407265768,-24.137359331441136,-11.303938134300557,2.433853124803179
5.798764965213522,-27.911052798444516,-16.64664507648701,-2.769689250353136
-2.566841846342482,-23.289071857222943,-10.180250079457881,-8.137620636283966
-9.903059312928761,-9.910246275144765,8.472007289390934,-10.96495218224114
-13.695913024134896,8.29440371026411,31.522055702352663,-9.994434267917441
-13.746118513985158,25.034661590393764,45.730424819758085,-6.039741788902237
-11.743508123842284,33.677656703471584,39.41517588214176,-1.5438927889425884
-9.811623745613973,29.880146589238873,10.449973041193328,0.7527527211580981
-9.062285747854043,14.846505460060103,-29.98283738463224,-0.38946505745545906
-8.775888436226841,-4.5320343883679515,-62.59606117608071,-3.697836462635825
-6.7445216514110395,-20.826758685164883,-72.59786058294947,-6.3148458772621625
-1.0516210001782855,-31.53065401249423,-59.97758135946637,-6.056041902350854
7.752338383753197,-38.434466193712574,-38.09454536268454,-2.9589368680911656
16.21899323892685,-42.654952497326484,-22.129238171894922,1.0807144537823548
20.267750898705703,-42.68178899088521,-18.380253833898568,3.866051079733981
18.32942821566907,-37.2318116049849,-22.600640474438453,4.307401199806705
12.455276275228732,-27.31892576745027,-25.857526597345505,3.04208146287417
6.489999054222081,-14.534678638004698,-21.712797312643275,2.055851327437412
3.1424999570000645,0.39624387363708924,-10.521639329587762,3.197461329453336
2.378282673763947,15.659816572142107,0.963971077277863,6.362251514267719
2.0672562520736832,26.632718139509816,4.897619338546564,9.110418280862024
0.15034217801787086,28.404709905050673,-0.9425979360274102,8.588713118707517
-3.2860726679205685,19.922901018053857,-11.199583736427346,4.18659493516421
-5.700679473381462,4.839237045614279,-17.847611449936814,-1.6464035322782145
-4.155967511081524,-10.744451305852007,-16.65738345348598,-5.1792051863808135
1.707725425984569,-20.327040818054535,-8.884176485173946,-4.130632207374304
8.483099758333383,-18.662069404884956,1.7803806457921807,0.7386623473113073
10.997126597422886,-4.588255016334926,12.448412774183366,6.074473186586154
6.066385414282344,16.962857556680433,22.09266786592481,8.089725918477077
-4.942309852942337,37.29490782141908,31.2438748649644,5.202037680425561
-16.61762175012529,49.10709658131273,40.70379879237451,-0.7314354635006789
-22.703007401260596,49.27212999120609,49.140077790630414,-5.836449792596292
-19.984408715715684,38.0652745480494,51.8994851413704,-7.296000367174329
-10.392160161083288,18.54480942841905,44.157062863053156,-5.329926879307449
0.2906530654016531,-2.796533641503154,26.625749681122798,-2.4173845633463418
6.44423261216392,-17.755314788709416,7.248196733880503,-0.8989530531717901
6.351462325531702,-21.60965352494268,-4.401028813190835,-1.3191304036746685
2.6981468964701425,-16.5306320828742,-4.790017342338746,-2.538834520217613
-0.2683314880793209,-8.870389014934936,1.676997309311464,-2.942676534843693
-0.15437684343240995,-3.6034428550579745,7.780916380659017,-1.711675684471958
2.3454945177975968,-1.9563701665555397,9.699182868190459,0.5276894726413616
4.74769341791001,-2.7884553883165717,8.705910502725462,2.15708153806142
4.968884375924735,-4.158885278613323,8.064680488929469,1.9613075309583081
2.665636022602926,-4.163652472173575,8.521227036904401,0.19503283230347254
-0.9662071334005312,-2.527623421473477,6.298045221290205,-1.9035332723508678
-4.48603056692842,-1.5106487612637638,-3.9634997684239734,-3.555241972674801
-7.358689026235136,-3.1852325911020785,-22.747940392371465,-4.938072791427389
-9.838036341858162,-5.395438056602296,-41.87842344056517,-6.159939314111833
-11.818655029160997,-2.661207092039221,-48.94459448367157,-6.361401898899133
-12.236847954493719,7.471603317001936,-37.31105593410189,-4.465553760382583
-10.04515426305392,20.23567414626821,-12.210097951423155,-0.7403278844129246
-5.703975823547662,27.06386475469606,12.814207515142153,2.850411263595627
-1.26924789670627,22.663117801747518,24.977828538743832,4.059646729005464
1.1832727481459155,8.690822161524776,19.079933551299643,2.1687427241980406
1.0832341414531423,-7.427822404975443,-0.8695264879791179,-1.3251191342122666
-0.571242022182147,-16.12502808134579,-23.866045637789753,-3.5845101655802094
-2.1879467112402233,-10.869602927172803,-37.10411609945737,-2.3463092637900305
-2.433471575000312,6.378753848836242,-33.15502511042877,2.308477666472008
-0.6667664534183196,24.532806771649913,-14.84158116056907,7.770831853464909
2.7456594589092007,30.95568897239962,6.880405325813631,10.766638094587906
6.416781736831506,21.548684800060215,20.79484745766367,9.799637979399199
8.684206306156259,3.312683931405884,22.276478525005242,6.0056654348680345
8.800623555672354,-12.646980306915244,14.217792048018937,1.9143755749821403
7.535963725569746,-19.64036365691205,3.228485897761807,-0.3623700814419911
6.574291570924757,-18.00172744372169,-4.8746832221920675,-0.0508024823118246
7.102227247589572,-12.211256019217451,-7.681683170859593,2.251974472321492
8.584318589346099,-6.633351584109906,-6.068872249377915,4.909950974876889
8.740100147807878,-2.2778093715181167,-1.7975028516455474,6.026984056508278
5.189367520002683,3.6126262970682417,4.725078637563679,4.655452649250246
-2.119183317788312,13.411085010219447,13.611175506856117,1.4518679993992478
-9.904581544722662,23.297219301070633,22.320938505299672,-2.072744686791275
-13.523921676158535,23.486040083123118,24.946293495224836,-4.9197064719496035
-10.605636210256593,7.2158425712517715,16.799622261507547,-6.987763804400314
-2.994880673994503,-20.19490215452022,0.3359314326594162,-8.257672544012445
4.813702839139284,-43.079560392477106,-14.532650774081544,-8.146658888717935
9.079000381813461,-47.233161654176804,-17.37570829114613,-5.972740354961301
8.975892962765018,-30.546038270365447,-5.657400501029693,-1.9045170226218235
6.275704096516903,-3.9878535587269166,12.568398814592742,2.6898866764610703
3.592157976925831,15.91767116422315,23.986814071421563,5.789017707949949
2.6789475275504095,17.36586785710952,19.822682179143044,5.813188063850735
3.574176955427545,0.926947372852705,3.2383861666775937,2.7451953610250643
4.926027726564195,-20.424958041133017,-12.091938615603073,-1.5190991851533735
5.353109310896183,-30.979948001334254,-12.899971334359105,-4.268391563392115
4.786105818205025,-25.148461278181692,1.60894676678211,-3.9535788629013693
4.462346968083373,-11.467123427199557,18.207801117579844,-1.2729848663357073
5.492908089777688,-3.4087882938423566,21.355163967937315,1.675413143225564
7.458976574377916,-6.564699179576243,7.403235746280421,3.1683010790594053
8.456618186937574,-14.681293198909676,-12.155398416489254,2.843881040218055
6.5606461778471195,-16.314320331560257,-20.700843286859723,1.5133082025294475
1.515765032994778,-4.323501414131034,-10.172617343820287,0.551506756939192
-4.627734072622039,18.65634095539659,12.372105958693945,1.2008832515638546
-8.627216494613782,40.907146653389574,29.272707944424795,3.6316306300767827
-8.484534620869221,48.6139322702404,24.619464296220684,6.337244311398577
-5.3694493619055494,36.2094493913498,-3.6418033204873925,6.927993813050883
-2.975169559504077,11.817911273203318,-41.14069132370216,4.053672246196295
-4.39694521319496,-8.977705573712877,-67.23792696936832,-1.4027082218143971
-9.333666306268965,-16.226292130103182,-69.9309266220428,-7.082683677550987
-14.363031807192042,-12.461805144861415,-52.71454306669123,-10.923045930971968
-15.955792334473767,-7.294510401411229,-28.793437026587316,-12.216242712118614
-13.30938363110981,-7.263420170091808,-10.007436818143875,-11.490526421574982
-8.708543383079112,-11.292942822133785,-0.2184088176765218,-9.885063473738285
-5.613832398487386,-13.53232298642697,4.0148317107806415,-8.506010699294238
-6.177919442593012,-8.882604648320651,8.502010166387256,-7.8584269050298055
-9.74228597093595,2.526688377056941,15.943042019451969,-7.668282407498693
-13.160981091266567,13.992890283475884,23.195477922908093,-7.338818751512551
-12.904598166832185,16.271724672926425,23.982995557169268,-6.524458812883554
-7.658560711386459,5.779278970457959,15.689214251010215,-5.119245336897538
0.5470662372714397,-10.367712683882829,3.6881682637799384,-2.9088287310086574
7.629522618329655,-18.79082648222131,-2.052428472635397,0.3182395985245677
10.163546482462943,-10.215323051929769,4.7691210921299785,4.302079492631841
7.553750336232614,14.084157907208963,21.7285617000558,8.381649674608067
2.3625336777124977,44.104338487178104,39.886882233244336,12.130622417448214
-1.3218548116209883,67.04425002500717,50.128459437601805,15.45482164121046
-0.5936223177369757,72.78148057104917,48.46486336078545,17.81496982514944
4.2017063662664835,58.42538100526442,37.75236864100612,17.900989663147115
9.771649551286538,30.91437815901778,25.2904331661636,14.793347063393677
12.566750837210352,3.956160758414655,17.065838375446,9.472790135535604
11.52177896118892,-10.667867429942538,12.483981985763712,4.666645818034781
8.317281140235176,-10.376845777282796,5.144466265589339,2.8389105304319258
5.226845153270964,-1.3464074105553143,-9.71040679932817,4.195392836498098
3.0422842701178023,7.490310965724859,-28.394457233261623,6.43646511046725
1.027237128412469,9.63276110555677,-40.41489929091411,6.370264053698317
-1.6188731875071314,3.2829615269442787,-37.322271670358205,2.287917339698786
-4.588918032395475,-7.903962601536267,-20.014314034760208,-4.436012426479377
-6.543476059772525,-16.48564908712998,1.5990749286988952,-9.916365468393279
-6.091901845185463,-16.817352339955892,14.969778321735625,-10.582601589125083
-2.8857310733885284,-10.572543482661892,12.409610113725904,-6.145895485780092
1.9018833990304347,-5.571464264612336,-4.004171626375577,0.05373806875908092
6.169369302231951,-8.36953224202065,-22.957651792333383,3.7247115594136524
8.223076102357513,-18.738343595368605,-31.123415506547055,2.754691424499349
7.683938896663485,-31.081368111560394,-23.012158423907707,-1.8571252100572968
5.178888404774827,-39.13350432705322,-5.1566004310492435,-7.339888000070856
1.5156382436650953,-38.882168033116336,9.4371236659918,-11.014113910403797
-2.4166144814141286,-29.95926825611792,11.269634703974452,-11.456358361116349
-5.1220108939297475,-16.871878431555512,0.08269955184121368,-8.857705598548606
-4.700979718969083,-7.548864761439878,-16.73250816885338,-4.638069338145888
-0.25138694292011665,-7.592211561006575,-29.820321392781032,-0.4125609621323383
6.891885478519648,-15.19799212918111,-33.39198999183392,2.95504430008827
13.561478417048896,-22.82942053835515,-27.88031460495797,5.341661627861636
16.593248611988656,-23.929908987916985,-18.167827695289827,6.638522227990763
14.636837680109346,-17.42539559787941,-8.529113842564849,6.437423429109148
8.803129026946342,-6.916140821103069,0.9144585799590513,4.516717524569249
1.89767504664918,2.406283017019048,12.269994386776238,1.3079216939653824
-3.3405614540367323,6.453977883414121,24.78661837022925,-2.2866686144777657
-5.9024583792943535,4.660930227155367,32.95476380629285,-5.300879827278379
-6.707967012533599,0.9374385823038284,30.430260066094856,-6.8384727935664085
-7.113672438061469,0.6249010794075532,15.93826086985466,-6.252344603612974
-7.365293937467699,5.262457692313772,-4.166831697380869,-3.7031831836535534
-6.808334832930208,11.30373816068739,-18.528779175075535,-0.519637041390509
-5.489182676050295,14.696045305822606,-17.154423192718387,1.384648862285314
-4.912258534506135,15.352563439095691,1.5650210525925197,0.7422076673385996
-6.70771740145509,16.01922124097143,27.76570058287821,-2.1911549251601516
-10.592597049717888,18.17824801671174,45.057563395202735,-5.650513240549168
-13.979577811362946,20.839821661600585,41.90880860162205,-7.198201695903903
-13.884391037792025,22.43078991976902,20.679259631350337,-5.213800336079285
-9.500894566160923,21.75493703131592,-4.119485361652699,-0.4301130870945168
-3.1839504023284517,17.460986799445912,-17.081880001119607,3.9338633068687106
1.1244158158878184,9.012272734756033,-12.67458835562634,4.375944384830296
0.9158000512816246,-1.0971680330981983,2.732067286127614,0.17897523439290106
-2.863474335817002,-7.964045804171727,16.976734029317097,-5.666816831520899
-6.597927044549252,-8.403234146345442,20.336186407719612,-8.836256905789925
-6.9602224486138855,-3.6814607704290205,10.945576701729719,-7.073046145161875
-3.360716062924925,2.338334761848247,-4.7782494077191435,-1.512985713903419
2.169708006692595,6.586375106497865,-16.92266467173432,4.732913623517808
7.046354659768318,7.822060273094482,-19.18849199852119,8.923789415361918
9.88377541193013,6.032053012687066,-12.860967028769165,10.100016209993466
10.693632272866642,2.2824422718528905,-4.709529781509592,9.045759943625349
10.162718411155673,-1.79366895406523,-1.6772724963223042,7.23312080913768
9.002418108477903,-5.592630192088485,-6.934112932923937,5.5916370993199305
7.524467197187046,-9.54161196333179,-18.519007505082563,4.0963153055001325
5.365709004293533,-12.133914565554976,-29.991092689819848,2.4825840636255045
1.7386727107211517,-8.543022153757079,-33.91737852617816,1.0821838031300157
-3.647934885761042,4.8729570725911024,-27.627051638306245,0.5729471974485805
-9.79402237427887,24.544144442668152,-15.945804300352593,0.9782714882120094
-14.660557979217312,40.57995728006937,-6.425779360573175,1.4170394831383537
-16.321253784268972,44.717326453624956,-1.4338898982637076,1.0531123488368284
-14.049013467648644,36.372336113195026,3.358534592848055,-0.03301735304954189
-8.70427348082266,21.099472006877136,12.014467024000405,-1.1201183511298167
-2.4036507989178255,5.457123316959806,21.72742625753943,-1.6688353392012416
2.442011419522249,-5.8864339257333445,24.861861057618864,-1.5931034102176616
4.450362977166369,-10.867889236292285,17.076562872955744,-1.0277365072930913
4.076754166507015,-10.806627028655544,2.3213940241223145,-0.2888817087590761
3.0548795234732005,-9.946228956537347,-9.995475414447712,0.03304005482454174
2.888120833819515,-12.068980824696274,-12.243277340069563,-0.568468960190893
3.889835802633835,-17.112671535406264,-3.8718131523484085,-1.8764554353751461
5.55570889516847,-21.765590672443256,8.940819209462735,-2.87033215510597
7.446217364989871,-22.802939123390306,18.645524023346233,-2.413375027102914
9.437857794445902,-18.9588286045887,22.214635372266297,-0.01809057557983537
11.346508260548946,-10.792010879956894,22.23576593206854,3.8357382180530912
12.704958983485463,-0.9828889535073326,22.255653660030188,7.761804904586053
13.01775208102189,5.438085472038126,21.89663486840721,9.923104444301755
12.157490401094474,3.802836021884507,17.90080460370005,9.062599889620676
10.564342765271158,-5.771707827149867,9.881350996289555,5.572538917086288
9.116901206352603,-17.653714838591604,3.072580144423142,1.4266390008479795
8.580521317289447,-25.30168688472784,3.7396661015027095,-1.2872464878005943
8.853919553061305,-26.111207993713688,12.115232395781305,-1.889909615537349
8.7748032874278,-21.84146643851671,20.793028357562335,-1.274335404779077
6.98911499466237,-16.043106126270217,20.18957125337991,-0.8605271562119478
3.178371821811148,-11.889161161104374,5.859805451288096,-1.5260255502366404
-1.6579716319335878,-10.61835806448664,-17.808328660041433,-3.1832444504117583
-6.120126846559624,-10.167152316141966,-39.54358766269399,-4.93274049287038
-9.438916859275038,-6.338207453042604,-48.02656874788175,-5.721175275941776
-11.685413406499627,2.5553154956648374,-39.931935444723784,-5.328334401589662
-13.367808093643655,12.434206056194785,-22.808563118422395,-4.832149213009694
-15.002684161139468,16.647414148145717,-9.09347622078986,-5.746537118626997
-16.75379477589609,12.641871553214617,-5.9506686222226435,-8.46433678045832
-18.155965071836878,4.322194739642706,-10.38819084810601,-11.68226038672939
-18.34752178851934,-1.8743742468284512,-13.552298146610998,-13.446600181566565
-16.922015115716757,-1.74698286347445,-9.021777047058022,-12.643418105839718
-14.555641796786812,5.147954623250692,2.1553250207493164,-9.579219633046945
-12.542921004341533,15.820809431890876,12.309379407968512,-5.593015811254865
-11.620323141179636,24.58544382639929,12.444620398279287,-2.312193326165782
-11.27745661142056,25.81962056140915,-1.0219692689477142,-0.7741486208867506
-10.081802356910158,18.346371332601656,-22.477754607050347,-0.6301645889121027
-6.5420803539594345,6.707442096531529,-40.08257302014307,-0.21668346241683575
0.001526979495708005,-2.897018153290691,-43.88622059442554,2.123381030713979
8.64747716594996,-7.138715905936662,-32.0877858318882,6.574677483896592
16.836714737963288,-5.4952369148705404,-10.486617795146095,11.759289087704456
21.517679597605277,2.052708980782026,12.491055833592505,15.957936257709894
21.14102414033433,14.427275321645174,29.891232366942816,18.15731960870981
16.816121956711516,27.153714321893826,38.070672046168035,18.114847188393366
11.487318277582315,33.736001539284096,37.81669853400998,16.069849410796966
