TP9,AF7,AF8,TP10
-1.9765624228019152,-2.670184393142042,3.961210677069094,1.9446366490505056
5.887319233946154,1.5779828514483791,-8.098032819390816,5.936010784424157
10.724871541643155,4.466745546211956,-13.941762610140428,8.20841432232853
11.781217874626263,5.944531054063191,-10.395420920815631,8.138515541080253
10.635595161124268,7.161664655135655,0.785271396016559,6.137668743686825
9.17259420916594,8.853990669970713,13.393685528951696,3.0318918551429617
7.858021907490724,10.048708028604619,19.876600127214278,-0.09925429886345435
6.100989945613137,8.86868774061175,15.821840810965938,-1.8513200457887224
3.84376760999885,4.811227502924715,3.0987367421685517,-1.1048496463087283
2.1377556827977418,-0.16807366139299068,-10.891133816369768,1.9541798132831347
2.0063759897895825,-3.2130293322143584,-17.956318388434926,5.679711485909152
3.1507468160357996,-3.0758876817955594,-14.852212599163233,8.000467488924462
4.062515403570413,-0.9384167429480871,-5.758159423938438,7.574137308227123
3.231925801471299,0.8726370129913866,0.8342761508441162,4.233240551039232
0.11793012205746614,0.6010156098249453,-1.070635460869494,-1.0364724511486887
-4.670962791723515,-2.0771302509190157,-9.891293172157388,-6.326918254012786
-9.657275939138225,-6.048904360019758,-17.82779994954872,-9.554053402966522
-13.073366934142973,-9.441629101572001,-17.842442892305098,-9.589782075698922
-13.778814707244983,-10.898982320416584,-9.839903639002655,-6.792582025409478
-11.993830598923914,-10.598183238438958,-0.20959911967916245,-2.4291782481754987
-9.04990232652483,-9.843863684843653,4.312150020517498,2.199306587443383
-6.274240634955444,-9.555647056121238,1.951176064138398,6.058927105984911
-4.107472489175419,-9.43836834043381,-4.3239575042494565,8.430965225933768
-2.189991151999665,-8.718027031742425,-10.891735260121974,9.273274176811698
-0.04034238700503587,-7.226885904308946,-16.434658143848267,9.373880561706283
2.397568816282137,-5.409873104361545,-21.1985922543222,9.554167520560588
4.59894815953801,-3.591605054098843,-24.324263678111134,9.629128919760554
5.688674916212586,-1.7371487181110625,-22.7506242700744,8.596566962292856
5.048719257332983,0.13293195107004832,-13.439158781061675,5.990688586770125
2.9363610006538123,1.703095748893695,2.750152135766828,2.6420960574246366
0.4291821333139752,2.611030899909298,19.520426767829804,-0.13422614582537423
-1.3837056332114193,2.739037661706309,28.594833112647056,-1.7964626560689916
-2.0970600926086664,2.332438103177681,26.11603818203911,-2.788720185483124
-1.885290329742563,2.059514409891142,16.290901277570587,-3.784204223390336
-1.0386229616473575,2.7549741488647213,8.383486352643034,-5.000426767992543
0.12411381159012838,4.59234190537983,9.103402648940344,-6.03653643053373
1.1540215718360738,6.467121392546425,16.71641406719755,-6.08028638053502
1.77111883034264,6.727202868981614,21.966717195355365,-4.483419228434259
2.2294934005904667,4.779680939858959,15.453714568883921,-1.535021598990588
2.89785429658971,1.629252904726186,-4.204594790304777,1.4050456468494905
3.369126214210681,-1.3591793743211509,-28.119118395464263,2.9293231738461327
2.5341525712292396,-3.723487031484995,-42.9493738088888,2.810319522925659
0.01875432630547982,-5.480761932858436,-40.23179298362911,2.010616200044806
-2.6486808045250654,-5.895252145293875,-21.785860978292398,1.559477886431839
-2.83530952014913,-3.5509597499524643,2.5168455066531905,1.7150144407417263
0.9517631327305497,2.104605159599481,21.92014622079234,2.0940953947416796
7.555918019010814,9.70940406880924,31.12622244464662,2.0658855768968203
13.759330846455295,16.682730250359807,31.942375375328012,0.8717774630156268
16.344347815283715,20.763225730089804,30.10779705567047,-2.065414424420167
14.040398954713352,20.959671749399856,29.871146558793036,-6.433408344943927
8.158830710848362,17.6262580275771,30.016519618676316,-10.80496008798716
1.586566144182833,12.056638401491304,24.55735297605694,-13.545571599116569
-3.198656307339675,5.819484308859343,8.520895882059673,-14.015128520573894
-5.586489736162247,0.16925641611285827,-15.294000120457843,-12.807605933569175
-6.544955503262397,-3.9518110409199343,-35.233754144404635,-11.052560996921851
-7.032246938579742,-5.550150294509889,-38.35004519852823,-9.709727534101624
-6.894796917445859,-3.8657141808511915,-21.252218796943605,-9.196451789940749
-5.333897495879544,0.5456137538135895,5.684478038727159,-9.106169661762603
-2.171402176116669,5.3450333816523825,25.3587677592657,-8.274231476200196
1.527403201306326,7.644884803559277,26.386837890607325,-5.668426854922078
3.939149134049078,5.9503514933239705,10.566818331487914,-1.5179127434035848
3.5435043814920903,0.9688198203802351,-9.67878740721656,2.642890960560491
0.12781491413764887,-5.090923484351132,-20.50233983594451,5.2073674074976495
-4.804382556718616,-9.734351452404422,-15.420363725868075,5.666901143957724
-8.756383765379443,-11.291417355303887,1.4478864847393664,4.678223017624831
-9.90814321143765,-9.860406092979073,18.786952394875893,3.446130298900224
-8.352610130734309,-7.426948654112617,25.473348165769025,3.1710295207076227
-5.6416827462845625,-6.389732121935852,17.14207354202507,4.507467357616073
-3.226395404339074,-7.454412351553949,-2.0418082860302227,6.945697177977877
-1.5775371959093463,-9.162027708062526,-22.938488149206062,8.852054648275294
-0.6135543481406167,-9.660582692016657,-37.4650583191691,8.670173504189847
-0.3204783941046894,-8.599228552667117,-43.090862383007675,6.289216625453539
-0.6454817793040954,-7.068776797761657,-42.91188286704431,3.1110535522372462
-1.194967838179197,-6.13730275871274,-41.29448011029417,0.850255268321339
-1.5004132103447907,-5.921864127474455,-38.67051688879289,0.4389747975354139
-1.5024068871985485,-5.8305510241400444,-30.456248469844642,1.8108782992650725
-1.4948899915222351,-5.1508323751036285,-11.762410157573111,4.136864364487792
-1.6432721937785928,-3.4543229505215662,16.109180976975768,6.146254870312513
-1.75806106265202,-0.9530664154257789,43.66814136990485,6.762138674664689
-1.4767876231830253,1.434553474010278,58.370535603357126,5.859520655435044
-0.4994121019775789,2.785285270302158,53.36911156380843,4.277343407119902
1.222167812758087,3.1014757482298156,33.066004921090624,2.9165066358509217
3.2549700682850418,3.2401003005777045,10.712707293490691,2.0184831789237165
4.721557200113873,3.8071487747681445,-0.821395971804019,1.4194370926225257
4.919428020324022,4.441006621737924,1.5085478531841976,1.099149458886001
3.9890562234031828,4.2894107539480535,8.7303740007657,1.1010821660115588
2.6991935156545397,2.801537839118832,7.28426236915722,1.1767465254910252
1.4695802185631541,-0.1122032741900677,-9.259899234473345,1.006641893721852
-0.10190058479852576,-4.1680428245883565,-33.73158959121178,0.7427859988065049
-2.497262183757685,-8.430123875494795,-50.07575492347458,0.9286762049814841
-5.207268245594586,-11.193035010116255,-45.86685018629751,1.8119028722605006
-6.670186437577511,-10.782290606449651,-22.210580058871688,2.987437872944304
-5.408323611988634,-6.750583344141231,7.199949505493918,3.6796998251525572
-1.3945109623446688,-0.3062995928586847,26.554464656402118,3.076244192676702
3.4099205564542103,6.20014742321385,28.81211196546906,0.5405724314490411
5.890172179925621,10.107795898736672,18.68701920781656,-3.826194840071112
3.8316324993517665,9.503665290677894,6.8698275531578465,-8.54569895487169
-2.011855608405959,4.648341215695111,1.4786912527047098,-11.250131359803435
-7.744824834123172,-1.275023107380445,3.706686075386179,-10.492069113699438
-8.85597666612517,-3.6610460523325923,9.898279550037728,-7.126658166266931
-3.67447483120508,0.21978777824404544,16.42387315118181,-3.667973076607952
5.250108809455073,8.976654068486074,22.04523597734804,-2.3476993100308494
13.011504765577389,18.055198736932,26.277041563148938,-3.8549849105423912
15.705204466689928,22.889810983583033,27.067391611522872,-7.419810329874916
12.67993219805681,21.549623292774708,21.4138053675886,-11.38594371759069
6.524639407093721,15.371825230790455,8.428118266942839,-13.757708181671513
1.2383104871826118,7.829919183835177,-8.689453587804481,-13.036670083635412
-0.28021945647669116,2.436010702004449,-23.93713996179903,-9.170482615627812
1.996403223753417,0.6568128032539258,-31.974400489784763,-3.6541469922372873
5.4177925003343805,1.1812511580384744,-31.262770034432073,1.4866200631134547
6.721004002234396,1.2275904734656975,-24.960867447479302,4.836191518970917
4.261518612907676,-1.2412244505133665,-18.816328028679123,6.00477432151465
-1.2822186195963203,-6.339748791519417,-17.096233462921408,5.56720287670182
-7.72721907369436,-12.653221853907546,-19.56860977511801,4.892022209664909
-12.547947395256447,-18.11724343439566,-22.21993069979675,5.521309920712553
-13.75679347074106,-20.639084886706687,-20.996275868075617,8.025523611800091
-10.711216703877673,-18.86835619301522,-14.91784529519134,11.360694432096778
-4.685164189618336,-13.1971752799119,-5.954790952562369,13.635136171983332
1.5926088266561187,-5.902274628068408,3.381586213977693,13.603425965978522
5.552138049388855,0.2354402775795151,11.924529486477782,11.41855977787946
6.322159248536424,3.688879511533114,19.729535547565362,8.228207920964797
4.902100802851199,4.7027738120218725,26.715978121812213,5.321718722722228
3.0254636962490133,4.492553470656064,31.6582262186143,3.3634246895192113
1.8009030084285154,4.204909239996995,32.405276749386424,1.8835067600343565
1.0315291634179837,4.230766049574119,27.255404809456532,-0.4529455240191967
-0.4708221352346826,3.920222800466132,16.782146766723383,-4.46814671819432
-3.6831117554445965,2.0964031613299854,4.769152159355942,-9.10752636956704
-8.040138620942097,-1.5152014138242167,-3.260773819668668,-11.887562461886546
-11.29308236544649,-5.268808309423007,-3.8126465597725723,-11.116703515529817
-11.106539585048896,-6.577290876774666,1.3795125297756954,-7.559554595912109
-7.078559791980049,-4.258113557957335,6.103669972454534,-3.7280539403810726
-1.1801005585125541,0.29812969213454427,4.436302815725594,-1.7284637580395508
3.754339902103096,4.385809540534411,-4.34422124650804,-1.9124160890658357
5.905640201238123,6.123350110432694,-14.840997081933741,-3.1603210213043162
5.2298366043789475,5.407532190105764,-19.370258876921575,-3.935091847302342
3.078831777985876,3.4679456658853938,-13.686016526536731,-3.2352836795566633
1.316836482047324,1.947628972327938,-0.47568508565589185,-1.1837446631494066
1.207391097327981,1.9016156767071684,12.10783888831015,1.0557661466871728
2.410334457619505,2.87110898056307,16.23176518101276,2.2271574697896344
2.9690819399226576,2.8843501757733745,10.249098471906462,2.053510562033623
0.7692947476409292,-0.014946893953888317,-0.23170153565739016,1.3127965536803001
-4.498914312879911,-5.823442514561634,-7.142486007617874,0.9695735568243867
-10.607726569069982,-12.180018050437845,-6.639631616556295,1.5057270169445882
-14.073485367371463,-15.995089354389696,-2.3288199902054947,2.9227874126344275
-12.58437213134374,-15.59956454780535,-2.7466649522307574,4.734824491922541
-6.815869566901425,-11.703472962379182,-14.844434471990887,5.705461089172606
-0.2324002214326771,-6.718415562069715,-37.561510551174464,4.217543588761625
3.1997898814192465,-3.0634453416677627,-60.00131066152127,-0.3646982037140986
1.8453567835557687,-1.503278640796214,-66.76758999963833,-6.67081332722594
-2.4429335855603527,-0.703812845057738,-48.217887080258336,-12.00685044057156
-5.838262873888317,1.4203555356685136,-8.575333555113597,-14.154687081346342
-5.426886396622547,5.602564611443143,34.938661869785875,-12.56071202144654
-1.0811538169847341,10.416605167083429,62.33627273182632,-8.26638460171562
4.880026798084655,13.554319822402418,63.34368843014678,-3.2031672579520145
9.487591292303293,13.698029450195962,43.01280839568341,0.7195245808520796
10.901928839695415,11.126230382880113,16.55179720798751,2.6777594315174342
9.246118253631408,7.006198200706716,-2.2566730460062066,3.4364336455407436
6.21512172840724,2.6127274844137087,-9.788803991403766,4.395758155907829
3.729644173268585,-0.942527754594891,-11.829620535293255,5.872273897629901
2.649194685883137,-2.8197437646171113,-15.061968908544674,6.650632596113894
2.712907613755158,-2.5596595881964483,-19.386703070795384,5.503182366131564
3.5937130500107353,-0.04798145210829056,-18.43871584527016,2.85475666812716
5.522633554860304,4.3875555205031835,-7.269982712135047,0.5959049152387593
8.51042272490482,9.473033307377753,11.018147072971834,0.37175136854804564
11.273069462661406,12.840351159273999,26.60200473414109,2.2280652991409986
11.647395544897083,12.27945033578079,31.00861175956196,4.668998122020367
8.45159647813098,7.731215207794648,24.294320752618802,5.76397795693929
2.830975043414506,1.8110133754145972,14.853377878306459,4.532468763073144
-2.395228106858044,-2.131256861137964,12.131002486362368,1.8128381210286266
-4.811524556850233,-2.671721583998795,18.49187234953993,-0.24200249517044203
-4.172812740132482,-1.238545373693747,27.158508508851504,-0.0009394857999493392
-2.602750956785622,-0.8038093649308014,28.23175229270547,2.1615354041980703
-3.050580525261612,-3.68835955172762,17.78866232013509,4.431608302024996
-6.885206816000707,-9.878634000072394,1.6700686675185745,5.509215539145135
-12.389887429643341,-16.66921402544439,-9.985899893877756,5.571532246179534
-15.721090781277413,-20.10126250575866,-12.195876821842365,5.340836571519876
-13.913206128183862,-17.682028528539515,-9.01435205141584,4.872408289732548
-7.35999696938235,-10.358045862498837,-8.447975639227977,3.6294191157557143
0.4855211020366895,-1.8437163094174434,-14.629652798878706,1.3004066144830033
5.760149890201813,4.141218647909795,-25.17643232340154,-1.909707789508077
6.743941340583409,6.169284813253891,-34.567322397964,-5.472861236554954
4.508232892163789,5.272909280665191,-38.45858069838902,-8.513139656702654
1.7366712057716942,3.6032991636238587,-35.34147831407436,-9.83295888203644
0.7993870370560654,2.9616661825574817,-26.258035660318797,-8.647067964316156
2.178228533331509,3.7923408842119612,-14.184893024376905,-5.447244557511658
4.200364585708782,4.879100126337852,-3.0719280999540755,-1.7577082370819384
4.466695591762583,4.231645448861375,3.7139958037634027,1.090510301654747
1.9783014155744525,0.9280409131957007,4.724892146012899,2.696002043164529
-1.9634354555511908,-3.7225572999337766,0.7360037604028304,3.187189642701386
-4.961898621679073,-7.103251450892628,-5.808451420360785,2.633761508472381
-5.576528912867331,-7.470966500022772,-11.653807376304488,1.1164178409493442
-4.225617219518034,-5.133164051464114,-13.613070107071616,-0.9608556307609069
-2.3490400728899896,-1.6618663058863443,-9.383886170682432,-2.93633332689192
-0.9431181122894037,1.6138382712683177,1.5731539829046663,-4.131033928518187
0.14074857506612967,4.267115709903772,16.948315818843408,-3.9802340974938337
1.6382310894618988,6.351462317245192,31.005515672096784,-2.375325535461655
3.5809273627221363,7.5974098763349645,36.21393018827383,-0.20100447840559849
4.476744536621123,6.945349443318963,27.70123175697464,0.8876772778388918
2.120637041760107,3.0430482372531245,7.862821525541221,-0.13373810830872873
-4.134132547192598,-4.1495804383672485,-13.442997128869163,-2.4737658166075813
-11.700527361071584,-11.952033237640578,-24.806400637706286,-4.169885653949818
-15.875288538475,-15.834039021207806,-21.157396940701886,-3.986413183749289
-13.363262230521503,-12.711494332849833,-6.980861078125566,-2.4023938020626945
-5.082629718357624,-3.7817970252601927,7.686612302095592,-0.8060544453231112
4.4117595454679694,6.0599374479072,14.52373197860046,-0.1517772155843166
10.273027320810565,11.744517971978018,11.512781465279778,-0.4207647585115143
10.504515572474533,11.249776469351309,2.5077510959757325,-0.8450311984192891
6.677019620025328,6.219653160681029,-6.311835473699008,-0.40104693409399156
2.277239888864666,0.3545055099957058,-10.090670782590717,1.4400666688960517
0.18425165392838455,-2.895247009086409,-7.218974058274215,3.9833893261257534
0.934309347045616,-2.1754204418621943,0.9168720757073994,5.5528879348119204
2.8298611891381604,1.2371559259851101,11.574057971601682,4.911859362709798
3.678201962673195,4.646300599002172,22.035959832041492,2.4296028263110205
2.5947876829676875,6.002868464802844,29.702167158901993,-0.36116148303796614
0.3048344646828184,4.984906065366043,31.745407202083033,-2.17688355366578
-2.0003142375121654,2.3697253183489666,25.906410368470524,-2.725126018068983
-3.7972702452621347,-1.060929203457161,12.315525892069457,-2.4299813497222593
-5.312022904442609,-4.7194250125817625,-5.461196197285967,-2.0338416700467143
-6.87320860427435,-7.800547829971094,-21.29142113744354,-2.354202467226258
-8.403866564267588,-9.344626148100804,-28.731477557649768,-3.7165346982490797
-9.446785926496734,-8.872696142039647,-23.765226528691276,-5.409764725681894
-9.611083144219668,-6.775585591998279,-7.32088493465812,-6.25467582917525
-9.068880245084616,-4.0557586693983145,13.934285160606292,-6.057993052101266
-8.521876804261142,-1.7226153213646183,30.26391007055537,-6.103057763961098
-8.364091925134407,-0.1613305256234898,34.29343814010506,-7.781001022316985
-7.822633132708478,1.2424621642117957,25.42697820463511,-10.93030049204715
-5.352759956884442,3.69584669349754,9.788294333387162,-13.826572759567936
-0.2824648872460445,7.71402655350825,-4.200171129943277,-14.627515879909362
6.021495784627306,12.074297937545529,-11.458922274141841,-12.631299723936781
10.911806557921254,14.365948991546892,-13.479904034804145,-8.520284218404937
12.456255065821287,12.870355652386891,-16.792613715499144,-3.878954074871975
10.747389892010318,7.947760018740247,-27.052301988373177,-0.226680762437661
7.630591212285846,1.7364875935420743,-42.87111166244526,2.1844257736998656
5.51598526349659,-3.1788447145544905,-55.01825975344027,4.7702147692116945
6.1584946117290675,-4.927222879862595,-52.74826592773804,9.331833801415579
9.737967485731103,-3.060613422274414,-32.418418119175556,16.084611219331187
14.583728971823406,1.083465809543951,-1.0718263930028218,23.140604989662513
18.04797551383784,4.857715256415898,27.938517435108942,28.011989555038344
18.23691803693805,5.910235990093157,43.55025963681138,29.43089111731463
15.231692036761784,3.7991014152036624,43.28078093141825,27.83923676694253
10.75154979106128,0.04367496467255394,33.108969066071104,24.695471082195553
6.778168943567347,-3.327103400878821,21.718343443447427,21.534481634956798
4.4853037578073724,-5.098511267297711,13.807672332423376,19.1599442257573
4.037096660513773,-5.059430314069623,7.836084002728699,17.202523165920333
4.807142632380967,-3.634640062509156,-0.01643308999203228,14.601399912680023
5.610708038154309,-1.7090399881755145,-9.715760604176534,10.846437816791262
5.054656130161641,-0.45408713720754884,-15.830029509788274,6.570912260824883
2.085988827094289,-0.8310025796426779,-12.97376638567498,2.623590887396297
-3.4854408317499153,-3.1259588582337297,-2.711519235545896,-1.1209349403440336
-10.686521780112212,-6.888526905599312,6.052570015749454,-5.422112045246178
-17.43046711033118,-11.039621374930146,4.433599351616524,-10.198529560481782
-21.21157604784024,-13.98776846262204,-8.51407591396637,-14.049421582608888
-20.47147020057077,-14.139913658016702,-24.856581549608364,-15.557129947946006
-15.737977350321856,-10.851443580252264,-34.02039719836539,-14.776446041881531
-9.371115951539752,-4.951872152128524,-30.314404536950303,-13.289509548763448
-4.027519373741044,1.7792683324363678,-16.28500301545782,-13.084376160728464
-1.3061610736639677,7.53184378429151,-0.4737105915517726,-15.386508761457332
-1.5675355699037843,10.85501716945603,8.535991557564627,-19.909810985650754
-4.341157632871227,10.768016263220371,7.916039689885008,-24.670741159606845
-8.398323558999452,7.335852889948296,2.0027621015702857,-26.84781796003167
-11.766233742254771,2.2446052291557006,-2.018613583892783,-24.60762087348723
-12.525957258952152,-1.903530434271589,-0.5702207400322289,-18.469337319974716
-10.110323707023383,-3.4777305273872106,3.3320540967798853,-10.838676091096868
-5.768415722165367,-2.992614605104867,3.0156443559211357,-4.230093708991053
-1.5972089154812648,-2.2383344429167913,-5.480395769136589,0.09036607322243302
0.9450318884769416,-2.371627169243873,-18.627750577876185,2.26252785357623
1.7934293171639826,-2.969478399433001,-26.329034511697305,3.3268411882147637
1.9329443282634633,-2.696437621269555,-18.94173164491874,4.474428267569917
2.379311972121224,-0.6565443237023627,4.225107430043442,6.0394192831198525
3.1829862900849633,2.664358365643971,32.21227462882313,6.904313912821934
3.2733334210450247,5.44123665552931,49.16726626603637,5.418173676438672
1.5708420567149182,5.725033547213971,46.040543589973396,1.399403365728235
-1.490026295266975,3.2131166617903553,27.569417325132306,-2.9924805423725402
-3.8000055703284636,-0.08788387047810164,8.455189309364323,-4.839957072130239
-3.3812910421616396,-1.4425305408868765,1.873135315167178,-2.999449558209734
-0.3891877402385472,0.08777063896867045,9.733186256765936,0.9920975187198582
2.9834765444259763,2.885709085580847,22.14396497005146,4.29657856492987
4.637460538489841,4.579119092234748,25.837175035309198,4.914158377613071
4.324709138234188,4.213838633086203,14.605850573586808,2.909121599754994
3.2642915340362046,2.513302246213332,-6.135636915210941,0.14763539530849296
2.470091035909059,0.5767729600835059,-23.76036912581323,-1.163138205713039
1.8574869648552366,-1.0582825836716692,-28.04773636743561,-0.1920311659141282
0.8791109424000004,-2.2129211165250378,-18.261295667664044,1.9421926450540925
-0.3617436447273094,-2.534290420351089,-2.1449676515369784,3.361621772768669
-0.8751358835382241,-1.453551633103099,11.524448937405943,3.154683244471629
0.26712127309532274,1.3166310234701208,19.390980742450918,1.8023415800960865
2.6972657560262343,5.068782052188355,23.17160317540154,0.21405824887527017
4.580859437489575,7.788364429031805,24.245450328575913,-1.0369064117364126
4.065006517715795,7.0868998940819,20.110997566588793,-1.4862560855849185
1.2061587611547748,2.277783547669162,7.012203712688972,-0.5488630279975056
-1.6899310187226462,-4.2954172322707596,-13.990222548964539,1.9027846623132336
-2.034412543250496,-8.6067096066781,-34.17239273588896,5.003534088745031
0.6018005544156884,-8.18878408438256,-41.60213502221732,7.451239513387213
4.112692188594259,-4.11478098421377,-30.321206779741903,8.574600667867015
5.892766985222342,0.20881019864355616,-6.500102483411722,8.61413234039778
5.109745755500229,1.983177045419616,14.839125644422843,8.171928095393627
3.101168285110564,0.8478328133905124,20.833861864548435,7.783611231011636
1.921314983228836,-1.5188870308769487,10.136835850042852,7.8440489874550225
2.620185395765747,-3.021599445681112,-7.514364461342636,8.358924049048264
4.620612062394226,-2.565984133350674,-20.19025317128164,8.662702225130726
6.465180023718189,-0.5036795113179318,-22.440204577517875,7.861694835208156
7.191836205861217,1.9944995656596636,-17.032392205737132,5.802662146856353
7.061853324201681,4.005150416851076,-10.44163645924129,3.3273026403011117
6.845156916156979,5.236728149637736,-7.309474043624454,1.405140875072171
6.392012335125157,5.366577322721112,-8.138293698773676,0.24208964256842463
4.255876515766135,3.495064982168443,-10.89749322448909,-0.7264668721131758
-0.8846207079390818,-1.033770306366948,-14.076704701806031,-2.3676874992843726
-8.3884433976092,-7.147413612031706,-17.78449558486439,-5.450243568571292
-15.397848702954429,-11.9594197413389,-21.794349364239977,-9.987779440070556
-18.50350155217415,-12.712670235480791,-23.325851971193394,-14.339531519479449
-15.850796659507825,-8.90436810296009,-18.2354220439789,-15.395687556430536
-8.180855002365973,-2.5344224767652914,-5.24083189539675,-10.735967696775194
1.5475668318236966,3.4475620766319057,11.467547997078599,-1.1520144096711102
9.541848678415612,6.8732311776088,24.568653269189166,9.185723177837541
12.951296444464814,7.151964245274288,28.74531430915621,15.37807452521398
11.18321586557787,5.11980615763079,23.71597808175799,14.900247322287887
5.935822917543312,2.268837081283008,13.27409909416197,8.813571004807182
-0.008103440362151505,-0.21071546488634435,2.573610363737896,0.8312338354715568
-4.219171913801053,-1.8844139603156742,-3.921703982765161,-4.764976191329307
-5.424339711992824,-2.7140227295013,-3.790574808944697,-5.3880580800360525
-3.69296489310939,-2.5669566141231908,2.2529323263841614,-1.520779232564536
-0.30476458437185794,-1.3845989459595496,10.54532829666936,3.8387444447371166
2.7836496469042795,0.33620100288178933,16.639117192692577,7.3372917186401905
3.893089782483211,1.6837532822271761,17.806121623551665,7.140490507650986
2.4383627506506937,2.072650395829201,13.778274931631,3.199947009420903
-0.9419707856847922,1.6497530054616423,6.0650732007228845,-3.3526774888961626
-4.786993075270012,1.0174719550631213,-2.427597589211014,-10.491799358610338
-7.363152523166867,0.8529217594490722,-7.578160305314248,-15.6228156439387
-7.435456973559118,1.6884007203638687,-5.724778318660825,-16.848282444755593
-5.221917328589065,3.4702062631206383,3.3657185314358484,-14.408656891809093
-2.6012684725408457,5.112289138052842,15.255929268191737,-10.50055926662703
-1.7065229331814509,5.083674042665563,23.49275476736367,-7.366281905211198
-2.8299813335990365,3.0398324787516753,24.2743939211663,-5.624485798271652
-3.9151467565113816,0.6210256105060505,18.906754943287876,-4.315259661479091
-2.5505130427029856,-0.0441296013770212,11.808072214182332,-2.129317091468347
1.403504561292981,1.2414646941670584,5.795383381579512,1.3593507562241072
5.230160772159903,2.2364904932523233,-1.114566583640518,4.963350880621139
5.4018148184983605,0.4001602567730192,-13.820932071656037,6.067307318186772
0.4049784502180131,-4.560143474903046,-33.65034738704418,2.313217688531265
-7.899090392079067,-10.17309505594131,-53.004095579247156,-5.940643481860283
-15.266442925752477,-12.913185619117625,-57.950291855009674,-14.858930431968904
-17.70960552750723,-10.582104713502048,-39.00271611322536,-19.581947551205207
-14.033319057686972,-3.7871748247756343,-1.2601935706654017,-17.943405546929032
-6.44997816950565,4.3249830179976,36.36283955721924,-11.852023893599734
1.1826116208941393,10.0082923400264,53.874150378360284,-5.224958617008578
5.9614107650324835,11.26013937904914,44.80894737225407,-0.8215933185973199
7.252587428449272,8.733485978808403,20.441348983384618,1.236325045612438
6.14030053923724,4.618297830827374,0.045655547045897284,2.630107370307341
4.171459094104053,0.8597155505319105,-4.656789403286856,4.855069934661401
2.543782398724373,-1.6519907826499733,2.1187689467239728,7.6539728514392875
1.797055802786043,-2.8752495836879253,5.893523761634627,9.185277063702582
1.7440417947038798,-3.3345627277499976,-3.678211583133342,8.101954714395964
1.81543543785822,-3.9220894778576283,-22.79937171129047,5.673030470288432
1.803619227084341,-5.260413810814253,-36.963154330159625,5.325501334131323
2.2056873701273374,-6.938526294642794,-34.34070779711645,9.415525149659778
3.534851937881116,-7.7006402363007185,-16.404581264312327,16.381492870627923
5.317355977462964,-6.644587339564715,3.903719910013985,21.426430115536192
6.147414813027911,-4.062856503479372,14.001934517598285,20.277142142837747
4.9879193280025635,-1.0344030763547396,11.927250412426032,12.641922734254955
2.331298528337171,1.4530295839478016,5.980542604467391,2.6318729819632094
-0.11700659997882276,2.75963097135351,5.334997708943992,-3.984030145452066
-1.0270290390572805,2.40095601706153,11.106754899218425,-3.85910153637781
-0.8389542241134991,0.18027901872265814,15.920905004580993,1.2093800199442466
-1.6251859082484597,-3.423630841133319,11.768232886310086,5.3140240820915805
-5.2846729568535675,-7.269051615322654,-1.4698909868272187,3.1726238636098087
-11.365608323996623,-9.996043773667585,-14.970668785402777,-5.140986929097354
-16.512604824877826,-10.408613264828142,-18.546978722293275,-13.993922366352802
-16.57808979690002,-7.789883414812403,-9.589270746459286,-16.96864343533866
-10.068950438414944,-2.497515571496616,5.134482406405158,-12.127673201173824
0.0634532135313887,3.5407839196061324,15.677688339315416,-3.0936117857215977
8.185531341202532,7.415957507386966,16.142234091513203,4.327894363539544
10.089943185312217,7.033120057292416,6.817597238362371,6.542849951005485
6.178709828878294,2.813024509327415,-7.973869501887367,4.32484337296202
1.2631780287904046,-2.1793427337621463,-22.280723041740263,1.797797099135749
1.1212486499135217,-3.9774366190158696,-30.16925177297871,3.192737658662334
8.183660453710269,-0.3261077122155927,-28.125957384176857,9.464249017985605
19.419087212642218,7.532641910786844,-17.497027857173812,17.26984888987279
28.26210334855012,15.435841423429677,-3.957052514943523,21.40525408464442
29.482238556753977,19.269031473597096,6.478036694442339,18.826720236522206
23.157940877021023,18.082456261124605,11.283524927323171,10.842856125794953
14.334237654542024,14.481512919072433,11.715669646761812,1.9008115968982837
8.786882336876113,11.916837475921355,10.190047261213484,-3.5356894033159922
8.78710070438029,11.692237977534628,7.937590386240611,-3.566958762701866
12.219072581707962,12.533423291303214,4.948146340561774,0.35281774788136505
14.911185526614128,12.441275059371577,1.5399464699028333,4.530992096338921
13.652125851558809,10.359544674868976,-0.5990937815539723,5.5586862808447615
7.837764258790275,6.332459064094599,0.5876273267572639,2.698668808010104
-0.6964368875030091,0.9979507317263218,5.238393770381021,-1.9540112056598298
-9.128596393765713,-4.5986889843757215,10.60268270018791,-5.843233771243055
-15.39537566866096,-9.142602916346316,13.024855523538815,-8.360117770693021
-19.030229211277934,-11.598107526185006,11.230643566250048,-10.728890725439642
-20.623499844552963,-11.737446155163504,7.447257024881152,-13.94883563214058
-20.854645502655096,-10.135307352908761,5.071794669278822,-17.565682969191446
-20.334245493615036,-7.908523569883418,5.35425976688742,-20.468291035227402
-20.002918777459,-6.503331123312077,6.396995596337423,-22.133502803421674
-20.77117695815893,-7.132925800692877,5.0048903066044845,-22.63176672391466
-22.320994441553083,-9.778886928081723,-0.7367272073414508,-21.80251201209206
-22.74929373874931,-12.826049865734733,-10.031982394263302,-19.00286636219072
-20.08096511577176,-14.171980252266911,-19.342469527030165,-13.797025680472105
-14.256636400136578,-12.838189337627213,-23.645126395671923,-6.838649718671804
-7.420687199441021,-9.404909800022471,-19.196626667882718,-0.13220625182709891
-2.249888065936033,-5.173293833212461,-6.784600603763714,3.799554148357544
-0.06763427152847798,-1.4035071949433797,7.49114031235354,3.711342158243589
-0.338718594698047,0.7605775528958452,15.902096532382037,1.0661666365634093
-1.600058993938185,0.4246398865605608,14.875929498206244,-0.7247615714483504
-2.793223756787332,-2.4265037290509617,7.589571875854919,0.7880283467970136
-3.88520453369329,-6.54743062269118,0.7236110992980633,4.7525845497565165
-5.295349846800791,-9.960741573827017,-1.6025897514668093,7.789418998426739
-6.746593538007736,-10.962068295426278,-1.1676370563613139,7.094858758869913
-6.956284104942456,-8.892049121647574,-3.4181216194436215,2.728414960581238
-4.8529536265598106,-4.5272305022655255,-11.560393201178174,-2.711409798911657
-1.0837510241153687,0.056346097258594206,-21.924839119690876,-6.064368526366104
2.1335315415921263,2.5946028642232752,-25.176560075748235,-5.5028495406346645
2.945710399536448,2.348918987866384,-13.629626080851239,-1.5176027847649889
1.5502102621200848,0.7960080698028753,11.01719149224053,3.3590264003706523
-0.07024718797291515,0.2963489100689733,36.96930647552435,6.26690077634693
0.18054199253643474,2.0438794548663477,50.34447003999983,6.171970095959452
3.1351283520680817,5.4395579567756585,45.34078947977296,4.467786199852867
8.078604418422573,9.12530549835696,27.885120784456632,3.375834307862092
13.252463596954223,12.023084486655634,10.074514068777791,3.9801562485923387
16.77900670323136,13.404240490572539,0.5191401796705619,5.902895398010362
17.736508187388146,12.766711348864286,-1.4766391612228948,8.289653945789508
16.721866231792667,10.276062874607446,-3.551329894324918,10.45992466803683
15.302681634760836,7.112156440448889,-12.235466317709797,11.862446071120516
14.788260405522898,4.845586138739446,-26.53606969820564,12.227369822131065
15.447046031509135,4.299789103907984,-38.93675763116964,11.99642548818095
16.636852415732264,5.04821885240669,-42.460826048956775,12.100095443045076
17.32341013666512,5.853302758673211,-36.57289794446066,12.992553496796495
16.510125935952104,5.497129912967563,-26.388839542492278,14.104106082626721
13.686664533842157,3.547969748483757,-16.98956375801522,14.351278024623653
9.268777778889746,0.7619094602814024,-9.254602797310447,12.97976009840987
4.471196398895175,-1.3633954762189102,-0.8773229201441701,9.927684491255576
0.42621341721916584,-1.8554299606133238,9.671259391711631,5.7546274131298825
-2.5996892736423503,-1.1558005746827098,20.615275919698792,1.3543771400426043
-4.9974934541096045,-0.502241933372599,27.588461827841073,-2.6213526197353065
-6.981302878245961,-0.4956523286473793,26.452766508281886,-6.274941020891772
-8.253963473860434,-0.6454376196661887,16.417034516409338,-10.089625560143267
-8.480422745184248,-0.30700273168444614,1.7725464494921908,-13.80094258684057
-7.815208164450418,0.4262193279786237,-9.531747425127971,-16.030417069962073
-6.888124870237623,0.9572698766468262,-10.72042718552325,-15.568705958243319
-6.406146633776314,0.9196927232305784,-1.2415965999939613,-12.900764063576906
-6.685751614592692,0.40084034495056614,12.472438866592972,-9.925819719378552
-7.280344212187175,-0.2983104997337529,21.440743110572708,-8.06930240967723
-7.074736866656405,-0.8583879767728998,19.90325835102135,-7.031165317464744
-5.167644147817246,-1.1274294747481861,8.185072966567654,-5.45541236249427
-1.9608439296560047,-1.4154593080572495,-8.169797162344844,-2.4650603785755023
0.7648659312243161,-2.4288417013588797,-21.519433313478437,1.5102409709775781
1.1243571826212877,-4.545095046153995,-26.08668060809624,4.943013244579367
-1.3811675436339108,-7.166926946740767,-21.11480681313937,6.077990227365231
-5.437626476338668,-9.046169895271412,-10.946157336305996,4.21578992589537
-8.670675689601543,-9.229953553373736,-1.516991728457515,0.7039963820351387
-8.900827267148838,-7.535846616851089,3.771093804290269,-1.6397238019276452
-5.357731164168,-4.343571444142684,5.184518384742605,-0.7762373343780544
0.6265896494684107,-0.4234483504992182,4.522738149923179,2.6608298378075657
6.129014245714659,3.01746722040408,2.5316845335438773,5.846145771286664
8.421729736318914,4.721115988488143,-1.692125536036081,6.072470891935086
6.722416026775112,4.251956403976835,-9.086473265092273,2.5660828237977493
2.319665271154008,2.3245333068008756,-18.21517693215771,-3.4138975930188407
-2.8624201390451667,0.0215590482003709,-24.282407868845286,-9.519717686115971
-7.594872368022464,-2.1404308628010345,-21.39309671985996,-13.42016110853079
-11.420138770036589,-4.185200074472425,-7.287500119174531,-13.861092337341306
-14.034759457540027,-6.0416431027752715,13.407765283326198,-11.304602678138199
-15.05727038014069,-7.372156555705932,31.12830496983051,-7.461069692190272
-14.30411759762821,-7.9256443196960875,37.697887874393324,-3.974164618658791
-12.010052558322267,-7.627365474570264,31.94277257630606,-1.598302043717407
-8.75267818242206,-6.289778171360511,20.096178084504192,-0.4932732528351333
-5.2067684649049175,-3.622027308250779,10.995087416628042,-0.679678759442832
-1.7742409130336367,0.31403160280238224,9.867742215483156,-1.7693714569275838
1.727024003908793,4.850177582327263,14.936926350642892,-2.622354550109987
5.77842512181499,8.935149371211766,18.967275009657254,-1.9369346930856648
10.202570873813489,11.41897329484048,14.927939225736917,0.6585553149321689
13.602500572215632,11.343538221100628,2.1167385563915437,4.276317573292703
14.289895793765748,8.676247272788013,-12.075359471202239,7.433289598456626
12.060620038101286,5.07546762378685,-17.081150287826574,8.878113237420184
8.851981355937971,3.327577531372361,-7.530226932476308,8.139139883267628
7.393462686930445,5.254057891072292,11.926693943876344,5.9142078193823755
9.141592414536266,10.05663081020361,29.766085277533783,3.952594632184309
13.32737467965561,14.934635293551649,35.97457176311024,3.9040350709769345
17.571266163560292,17.215858863620543,28.37389839570774,5.873775852328286
19.291908220667082,15.76797454783028,12.128277741914443,8.322848973656882
17.060530397413327,10.887653944286297,-5.826197894040982,9.562004623369194
11.291525477170557,3.6837850144259665,-21.725531417042383,9.090645112903607
3.811209626749952,-4.259871475530589,-35.1859220161279,7.396358732861344
-3.470969853204145,-11.247728065001615,-45.57506905411698,4.96326255797928
-9.64742125584407,-16.06344998775242,-49.29512978029683,1.926503613673654
-14.71579189185536,-18.291800104919773,-41.80722844179646,-1.5814192441528043
-18.722207996970706,-18.146486358566147,-22.961190718854304,-5.242242464322541
-21.30523388946427,-16.286729998326216,0.1358180490878142,-8.616491685738302
-22.009035622274254,-13.822650848966235,16.567617492730683,-11.031911450259098
-20.741155728073164,-11.987324125447934,18.717559575341898,-11.615729577106663
-17.891579304428348,-11.328290419032781,6.795619695125825,-10.055126176807839
-14.265200707785256,-11.290208895704904,-12.331854122779356,-7.421463116415392
-10.96351365778927,-10.886782982985762,-29.880761597050633,-5.687039793804937
-9.032351234378838,-9.800582963327782,-39.67810410113807,-6.057367966704288
-8.941697077993275,-8.69160783912766,-40.30045750263927,-7.936730103560083
-10.355881892511157,-8.4919927200565,-34.32478830874346,-9.612021255943144
-12.321723949214498,-9.473431705489956,-25.534939643385044,-9.671104851711176
-13.469389025835461,-10.741740346495519,-16.35788214642342,-7.746562108633987
-12.14540601465182,-10.363247904387766,-7.535175651438536,-4.465536941170989
-7.0374760672929195,-6.32958260583414,0.6108181760642211,-1.0961594515018152
1.6431992567707436,1.803218449505718,7.664645869874527,1.1502114145711462
11.602094563903425,11.889723399330993,13.926780241456346,2.0765568822277993
19.60167677586893,20.23200966725872,20.638485158751905,2.7187202552597842
23.529253843388858,24.154694381704925,28.485897133828097,4.183568713070202
23.444951776521183,23.669408514582347,36.06100642344621,6.292081784455291
20.86085765099653,20.706951997027314,40.439119336439894,7.7700741615160975
17.387048485870086,17.115595728813737,39.390525964969,7.7854122077030885
14.030052265673188,13.57791156950027,32.81215995337245,6.877511945248581
11.229610618593375,9.998259171235448,22.355092386266513,6.280522989426826
9.141358500370888,6.387021337730492,10.589489875679211,6.7253736837402425
7.968374356601992,3.3990616770566335,0.8646737045290701,8.054711436647446
8.149302534816941,2.2542966945882728,-3.0518360953231256,9.61830932935792
9.973488033019374,3.8601145310327203,1.1612676603082033,10.778880358857558
12.76789674071418,7.496902881561438,11.912198763576596,11.321378780131099
14.756241724478217,10.50758269072927,23.191633849561484,11.65274791755021
14.303744253173488,10.096841882340938,27.428316588254198,12.372347013743491
11.507093214717148,5.975617118749503,20.350314292135614,13.350320790912091
8.276084536770295,1.023073543137447,4.61001418848699,13.399411892170226
6.570988901441682,-1.054240822674072,-10.894210399124626,11.153218322307177
6.562580100842256,1.1713645676014146,-16.595008907907573,6.22134230311512
6.580860075912765,5.8753538303493755,-9.3767584300506,-0.5434004545927215
4.798218755890229,9.583485482994305,4.519250111702224,-7.451387499367825
0.939359046082704,9.550050118235037,14.014096610872242,-12.293289994325022
-3.5252317123312253,5.220258676218136,11.86949127678878,-12.917270663059375
-6.79055017522439,-1.7247941499230077,0.121872464926967,-8.73258961481654
-8.415676825962862,-8.537607610757503,-12.20572593585431,-2.0490946747328804
-9.653188905659894,-13.088782026748053,-16.639863125165064,2.8626707883927263
-11.952485241661465,-14.873887772990638,-11.726915789601634,2.894638461200488
-15.159928055695577,-14.64437391311175,-3.941021453020602,-1.5951725757666473
-17.55443645841982,-13.40959857792162,-2.7289678410385734,-7.6469307379177085
-17.891581499819225,-12.046638036246021,-12.929590390251661,-12.493777998223784
-17.102359273395304,-11.49076920476396,-29.984883465900584,-15.275383019579262
-17.477090202519644,-12.470770322571694,-42.53166320092864,-16.568912044134358
-20.10180488203401,-14.685259774887687,-41.43333228980228,-17.068354120215744
-23.396755413022746,-16.633257704053907,-27.691559946510644,-16.82778121838611
-24.325211782018645,-16.702646854656926,-11.511453074239768,-15.292528218971677
-20.974076588221262,-14.405810869117726,-2.9168886261228844,-11.870141675264719
-14.099418122357479,-10.481814243764548,-2.7277301568917425,-6.74146096156548
-6.55502722122606,-6.125011788636284,-2.484419625206653,-1.1939505869657758
-1.3305336290039922,-2.4224783984977885,6.562448224654226,3.1184270210831717
0.3226796382107097,-0.21593885508754573,23.604403649042517,5.338251982552227
-0.5288051788655579,0.1597339107924779,36.700176360249934,5.660292128400172
-1.5317686842260365,-0.7583807673918144,31.68754540223261,4.579829108673526
-0.8221659292353248,-1.7167330020986702,4.7202552974761725,2.4317038660186796
1.9026620340059188,-1.4763833108783062,-32.163739422949945,-0.15845122490106944
5.645376317047526,0.5221986054166017,-57.86715050991022,-1.94537449299682
8.960942221574125,3.8720248264775408,-56.72445593860707,-1.798608772794747
10.474260602876447,7.154778135276336,-29.384043256489168,0.23862914914983152
9.180693982766746,8.41492828232413,8.368414813105378,2.8679138708742506
5.08824476944699,6.548011972401031,37.44300708327665,4.451500197048244
-0.1448690203681137,2.7511392881319754,48.1643254634133,3.9778647446958146
-3.602785921907515,0.23644199974941268,44.202054556412634,1.6127751280151883
-2.7265472353679927,1.8234523810144594,35.909784534683524,-1.1676712518291543
2.967304165031317,7.485884311917219,29.888427937796266,-2.249772288562707
11.352699514685533,14.223012839483758,24.121759354366258,-0.49101324747244085
18.72359519486668,18.319301753540326,12.71135780390378,3.0320151409109712
21.803299716492955,17.93962236316848,-4.798952427833089,5.745580625444023
19.554131311181916,14.092175244712939,-19.469641100135437,5.778813886807521
13.531092059806902,9.499886472856776,-19.603512936097694,3.2899640991794117
6.450017248564426,6.345290577232215,-2.262176145658481,-0.255074695666125
0.25694957669489754,4.631722746021802,21.88074803049213,-3.489759041179856
-4.46953051977379,2.609665524750691,35.684682155138624,-5.584597189516209
-7.528289686298792,-1.04131952746615,28.324273598536315,-5.926658875113391
-8.196637601454857,-5.515076171752419,2.7382469637200817,-4.113423008016629
-5.787810905441005,-8.545761351445343,-27.228431839181194,-0.29561895901261687
-0.8628122507213378,-8.615244216835752,-46.338296336577784,4.7729741153911
4.663175221913141,-6.148612762083549,-47.04957540749924,9.924684191325525
8.75353624927397,-2.665294125092534,-32.88950510613122,13.610104257028286
10.381681699245993,0.6043734317027202,-14.610787201242717,14.17690718861549
9.580480524057114,3.0269212713291407,-2.0406466959160396,10.944083844512301
6.947862434810027,4.138600986986029,2.179219770617646,5.255223574963844
3.3980808887542606,3.635249702706335,2.1490473811052597,-0.01683706864302288
0.04299952282655662,1.7791577886200387,2.951478261314567,-2.454862516335183
-2.146062950196242,-0.5717783887712476,5.8517886664631575,-1.6284077199863511
-2.6163367271021274,-2.3760019489234687,8.782411211226018,1.2291275175884517
-1.146773521738892,-2.7133181311547876,10.20432903209279,4.619549457230763
2.1767605300971566,-1.0115827145206189,11.275060056353508,7.619940488356064
6.520787576033201,2.4262534970333034,14.070608050135618,9.701185323640322
10.040900135726092,6.063032496815158,18.359138610825017,10.292101644637913
10.732944251844366,7.868797609183823,20.86096368639251,8.829484804043828
8.009180317241665,6.853424883252257,18.07834761531869,5.358295317619197
3.387499648872775,3.7894559819727056,9.906716713277408,1.146095260408293
-0.6283923903108454,0.3218681635925271,0.23952082304748698,-1.5990671970065862
-2.5728573489696984,-2.4577595291478542,-6.299701563792531,-1.3696747039554011
-3.1888476612696364,-4.548628699002478,-8.316272696242203,0.8086231526636649
-4.761844908041632,-6.578614621929265,-8.216995014963763,1.6217589585781078
-9.059404999667724,-9.075684877518814,-8.93337312889151,-1.6197168577950039
-15.43153990230545,-11.89689382196814,-10.674027061319387,-8.078343772427909
-20.81282394543702,-14.051132855272511,-11.444949178468068,-13.797380851032095
-22.04211173032858,-14.331660269488046,-10.360844995487534,-15.234872307578943
-18.63824151801726,-12.531145248500703,-9.29857986746845,-12.268167567181019
-13.27972657804627,-9.876481228769565,-10.67458870388683,-7.85565699822214
-9.333693813188347,-7.797645937313085,-14.140964030471357,-5.278760664827315
-7.902605017347262,-6.312262349021921,-16.329974419037097,-5.784527705678438
-7.323556025094569,-4.125895841487668,-13.989740323882746,-8.131609985949847
-5.295374018323223,-0.4190094793831841,-6.98863368316228,-9.735354852443857
-1.2328033225947506,3.932837304498328,1.7763488145318929,-8.608792757812566
3.1976217450731834,7.0953948671676494,8.948550265980211,-5.084545646971653
5.358710782416478,7.832947082473088,12.952231769140331,-1.8773379040834572
3.6133036935114853,6.207295730383268,14.061708393447079,-1.8737393613044238
-1.121381823409687,3.3387085607194544,12.837905915429095,-5.322572432079677
-5.3317096490505005,0.9653106813834403,9.032379874672671,-9.204007669435805
-5.080509321224094,0.7623004328366875,2.564347776150405,-9.625648112025873
0.6765606680156254,3.1714824089197347,-4.348789651267,-5.132678822121899
8.49288476425944,6.602471826238472,-7.045537633801563,1.9390044499862111
12.552358241804356,8.2210601364906,-1.927222787220559,7.111446689475683
9.145709164259504,6.022217252074713,9.320325111059734,7.1275414581619545
-0.25938325189728734,0.42703138756020315,19.784802640749184,2.5056234850247328
-9.961105094573073,-5.8699533526191185,22.587399464551908,-2.8445094968117477
-14.13564101057415,-9.524165165670917,16.519688493549385,-4.868933512268656
-10.771266243417289,-8.516844587877605,6.757380179821567,-2.618018977879567
-2.4395726876462933,-3.384969206366795,0.2888840394154775,1.6959867851181398
6.350868646339884,3.097572475495392,0.17235394652996763,5.650627406222854
12.604738640289053,7.767248024240913,3.047610008916182,8.916386437556625
16.031969577217897,9.112895380739893,1.6745021768266168,12.256345318649588
17.49341396830687,7.831458895642313,-9.115882809782914,14.987461438364862
17.135823374891572,5.703894181390302,-27.322256425393448,14.653774307049865
14.532585922575537,4.230280570832973,-43.80015685792846,9.627688534926703
10.219790502521004,4.14769951757123,-48.00754671205907,1.5280476792875368
6.1537161229151875,5.457431637384647,-35.282322883068964,-5.394478568627366
4.185925209637916,7.313643300724865,-10.105859779328354,-7.310607301495415
4.332183225733623,8.177411366467819,16.85229202693901,-3.520584490395062
4.822120278359793,6.801978008502969,35.392703038032835,3.168916363244929
3.7393040816123233,3.326656949675615,41.395730455588065,8.433984132129783
0.5408854574491412,-0.8013679935075612,37.82940192931165,9.384600343174217
-3.653254823316473,-4.017575715738175,30.892331879768992,6.405685869471454
-6.842667269255487,-5.58997995032608,24.49769250154454,2.419429418670301
-7.365851270495617,-5.5834177148200625,17.769870198831942,0.24749207901759543
-4.949411992637147,-4.421328875417781,7.871917636846425,0.5660817427063919
-0.9810395332568431,-2.6967787519441373,-4.701836277221235,2.0948032059645167
2.250388399739883,-1.1013510004225275,-14.377575639501645,3.1138331215702277
2.8403291659636216,-0.23566416441825813,-15.049665969247064,2.509689964311005
0.24550765660877782,-0.4804259775316733,-6.595471151559579,0.02500630069122009
-4.440567876058939,-1.9786379878104523,3.6730222929709697,-3.566879241615556
-8.904839525341718,-4.458189772797495,6.339331555601547,-6.495462714144648
-10.73184707731342,-7.037758818593676,-3.2146022883855028,-6.972116992536597
-8.901635388136556,-8.61519546862523,-22.061584369146818,-4.594921208171819
-4.554439196072922,-8.721468221785962,-41.891276009427415,-0.5960799676506019
-0.04242009658897025,-7.742588995879636,-53.3555404759304,3.3707241432397486
3.0183024313202207,-6.075766033963404,-50.36002642150695,6.336453365698644
4.667433386544268,-3.456192140879033,-33.020561997681206,7.889686693820631
5.586421797353821,0.3404917479879364,-7.725783767861617,7.6276508858600796
5.609394215098252,4.279193613848914,16.292082507167013,5.3320857655096425
3.7002821944139725,6.247011004997423,31.675795523356083,1.4960900123225183
-0.6607529033871802,4.830209722481846,35.61851428007852,-2.855611879153906
-6.458550145932616,0.7557445170177998,29.455843446890412,-6.976944552858608
-11.617185564413493,-3.5425502281096573,16.750199222225973,-10.827046839076008
-14.33608745010329,-5.6663939299976045,1.5890301204125976,-14.68159816589843
-14.084982121341952,-4.760969434461159,-12.276399821924729,-18.403341791538455
-11.763608160112904,-1.9683958266382668,-21.473386719642235,-20.941072868420477
-9.108337522455448,0.25999091410523584,-22.94443367661018,-20.48243548455147
-7.5478020546960805,-0.13144349681773268,-15.019861500651489,-15.627107918433035
-7.093275065940807,-2.9305960636029544,0.4585578175018283,-7.105610738954148
-6.252985839889087,-5.360832016317953,17.425160147013766,1.722022170832624
-3.3228020485375556,-4.211420268822658,28.50749759819753,6.867461653345902
1.9861877492212827,1.3022488292882233,30.058143882339788,6.790991234031301
8.072906409144311,8.73195603066677,24.85319835365992,3.480975492618092
12.50490827859506,14.340311849431323,19.728393517365497,0.47802162521130104
13.675379880307299,15.767235218840943,19.99551732030825,0.0813468940383183
11.855729510144332,13.197004916187911,25.092958405002005,2.3363615502078834
8.974439231941199,8.647809013885798,28.614405211297964,5.887621541011203
7.193365984853249,4.336594553259292,22.63283479666434,9.155216530888424
7.245703569604484,1.2369778898112107,3.683833864193379,11.07457470817376
8.031594750869983,-1.1607392105595633,-23.244374705171463,11.557576091632153
8.031545268328985,-3.5223646200062624,-45.84423015612669,11.42715358507419
7.073981390025896,-5.077501625636197,-51.34344036120814,11.437210159199184
6.342782175456984,-3.9231688038778234,-35.37030130816612,11.15631321613274
6.556017988241812,0.6178747625242056,-6.110888275448987,9.12540682814236
6.622639695095347,6.322489573563715,20.551474745812854,4.341725778958601
4.580478175643499,9.441492754022885,31.896355456890003,-2.4712994324771054
-0.1957659121750098,7.864751719265944,26.583172998460057,-8.991923225245722
-5.997817693851771,2.7106386484781733,13.611095380489552,-12.522634451764574
-9.968193238203355,-2.9772828416517942,3.442976350272079,-11.438621493561644
-10.192589258064308,-6.629719769918736,-0.6631981613669715,-6.269824256850454
-6.96274107597791,-7.493311254735103,-3.6205982986325917,0.25786615822113135
-2.512092122548968,-6.513618811400625,-11.435896765349742,4.798336583255362
0.4562059231944692,-5.374748998795824,-23.303969308460378,5.743551877010245
0.5349375766778913,-5.213536788247665,-30.972288628093107,4.169064045031679
-1.5480336336592229,-5.719767363637217,-26.318622019720248,2.3126012934788083
-3.724965752419459,-5.543878139311107,-9.784210775586105,1.330637258005265
-4.333455865523063,-3.8752004732466867,8.572803518496652,0.8164685045980488
-3.283769152070492,-1.5989348734740492,16.43539058108369,0.1584298691768898
-1.8928920316369435,-0.7654546634309731,8.52058404107358,-0.3571393921127494
-1.905633770602917,-2.9626992915426613,-9.614843882118569,0.039323860557885615
-4.414679867368766,-8.075261249683596,-25.74256694795792,1.5414574725671253
-8.924523756455903,-14.062595598301984,-29.760041154697806,3.359249638086652
-13.004524613727323,-17.596075913876252,-20.65962812101129,4.1208484699379335
-13.371036684262702,-15.561061555988227,-6.361947657132142,2.6330580651175866
-8.297670299839954,-7.178943395705457,3.463978130248514,-1.2720424263175156
0.507488580305481,4.700769721921033,5.279307854813943,-6.27524860770447
8.563248830617624,14.785533139211841,3.148309130191586,-10.203392523203103
11.619903864791661,18.608054666440076,3.1455600357943494,-11.536496873152561
8.599288459071508,15.331783001056131,7.170598222167032,-10.335900222665689
2.1822547220763577,7.971066663375516,12.490603973428625,-7.6949883022340755
-3.2041271071882016,1.2588085819408472,16.379962828272877,-4.661720895163764
-4.358122301281392,-1.1032872038733734,19.703731005041497,-1.9471789021748527
-1.1324129185884457,1.6589386652194507,25.094053685035625,-0.14554422435507672
4.019034805442646,7.122291903564508,31.862025937944843,0.566661635635051
8.173153268385095,11.266669213658512,33.752795779458275,0.9274253566140689
9.850981173641802,11.153731200415809,23.113751033347437,2.0379579589371826
9.281977588744939,6.810073271714116,-1.371031814801486,4.003312906131131
7.464677723989566,0.9395872339932102,-30.41285970354487,5.602897330429515
5.472724453136889,-3.0072911642146893,-48.283303574886574,5.655688849009306
4.348589883616127,-2.835468928669319,-43.396363882477964,4.326791334060435
4.634017803079841,1.227447888855616,-17.22221869863515,2.6725179348503905
5.403208511882038,6.41924156736349,15.950017330894797,1.2067271216963091
4.345940842024152,8.781472677262721,38.49487485513986,-0.5023538008477626
-0.16830904847971037,5.843207610760961,40.70271359852993,-2.808786684747714
-6.847979196331233,-1.1854123603459787,25.566904548827807,-5.015628621108598
-11.832084453765146,-8.024695213524197,4.903496879522186,-5.650383909906495
-11.763017491599268,-10.588565409627963,-8.981862980706158,-3.6843389062662038
-6.621716699280547,-7.940985613693699,-10.221108098578732,0.3903863334309922
0.34725771965866536,-2.4331283142134863,-1.4992507726284208,4.532946979091409
5.263634255029092,2.4922822699748806,8.885724651878776,6.4452382016054
6.270938373478664,4.570290704405701,12.91004078047131,5.340624664771578
4.212417942770066,3.643903550987493,8.010314724920791,2.470416331966242
1.2570251396712746,1.2571240784048852,-1.830415922794983,-0.3446173005828427
-1.0466151928121576,-0.6262445182761683,-9.64698292858095,-2.526384794727274
-2.5808788482635827,-1.0939233434279927,-10.865626454624856,-4.5970722443378556
-3.8418146887397167,-0.8861016149487643,-6.796486566591886,-6.3775016984835835
-4.753155507486737,-1.559279371563173,-4.189505431205945,-6.301164723267454
-4.741716538139033,-4.040848590737342,-10.737778633718973,-3.207562227531634
-3.9231760966938376,-7.913674555842067,-28.457929640209265,1.6046549548011415
-3.4815677578113635,-11.690747069566024,-49.51637521386806,4.976158988093684
-4.247986240177792,-13.425199761306613,-59.40740030173572,4.807301461808994
-5.158669152735362,-11.475803304735804,-47.16382553270183,2.143362433322405
-3.907475471897878,-5.668686887492111,-14.937234107906397,0.2691747279632939
0.5347598114544303,1.8535109295447432,21.84879184186403,1.7944527827420944
6.362715400511346,7.494285156981264,44.83390037402699,6.3966449135041445
10.182666053083565,8.66299555207667,45.34330756952874,11.073400564535854
9.776409630378236,5.5910752088021365,29.28203019756763,12.69094217052947
5.702376818861998,0.699728267570915,10.977649675784491,10.697766036724733
0.5660608691579754,-3.582970742967729,1.4418914408311316,7.45100924083697
-3.0412635436119713,-6.251018896760171,0.5225309909022967,5.66112269022709
-4.210483350738575,-7.516246119718326,-0.9616351535036768,5.552825793351669
-3.920169424880291,-7.92659501048017,-11.197487189682493,4.854398250009075
-3.845088742451681,-7.758440850999905,-28.275002822548824,1.5050724395675066
-4.853795014437744,-6.77809299266223,-40.21549524040894,-4.165353701459482
-6.513191070392514,-4.411547202595719,-34.42868701674041,-10.051422821742596
-7.881250096266875,-0.48798180225336985,-8.547888883663203,-14.378218073053963
-8.48559447169353,4.025664036205455,26.56794961531911,-16.682078442822437
-8.365091080269519,7.38712851792196,54.01437530172271,-17.169610921655362
-7.45149289038462,8.481124448003683,62.19666254744377,-15.95645411620386
-5.419476041477014,7.72520865321823,51.602109128895485,-13.112029333180203
-2.269321255734323,6.4437490656895395,32.48922038851644,-9.014598139126372
1.281808944465607,5.581899988641761,16.14400430182032,-4.433636096001593
4.2648504062619175,5.2251431505042,7.045100660451455,-0.3566543350120124
6.2475931796761035,5.077745649617734,2.179522911833431,2.41854911753008
7.561143760324523,5.009687469399283,-2.7627357444669656,3.884992395369078
8.849900423183001,5.209468760956665,-7.284763390401571,4.923312504962478
10.464546344316972,6.104452616308667,-6.842205079103168,6.248329809190819
12.122989859524615,8.054855852377113,0.6050495020702188,7.129501367961077
13.01581134128473,10.768082278148835,10.131186698016897,5.754286142599372
12.375562657167439,12.957610141349234,12.889922652427568,1.3715911888033163
10.142291010170094,12.890389739209791,3.587481091988989,-4.110119590479163
7.0636399812854656,9.537086614450915,-14.890120630845091,-7.0772975177995265
4.07708954434975,3.3377617710977154,-33.245597184932905,-4.935209993187263
1.6670291562389234,-3.8891681519328953,-41.83785531765146,1.8053282037468201
-0.19627573030574758,-9.632456604386697,-36.822074913061286,9.4630206473844
-1.8196928985252503,-11.769771569704663,-22.724278203245518,12.988031899783092
-3.7029158156895714,-9.865570140644705,-9.39479610280233,8.92345321240941
-6.261740178052996,-5.733599300639959,-4.75209932575444,-1.7878020110417758
-8.971661724165255,-2.1935929308014557,-8.891374458334083,-13.37488594702813
-9.839241054889625,-0.7320408633647597,-14.923678993979923,-18.53144478079833
-6.60215950891567,-0.4743574112664281,-15.740435132737552,-13.532856331685608
0.7890260910745612,0.30299867479237785,-10.11130561132402,-1.0478567856719514
8.931887646914694,1.8775049201004732,-2.7193861565414954,11.68585105418723
12.739307078018266,2.6312773325909427,0.9680340763471955,17.652577600209927
8.960681014291318,0.7326457824068145,-0.21944764763277907,14.18437965555496
-1.4957241206196747,-4.08209429088407,-2.388215732741594,4.035125935455999
-14.082931990861123,-10.22832194826683,-0.42463896572351095,-6.721876841594959
-23.247092877091283,-15.25486958333174,6.906837753447676,-12.496535882794179
-25.355070019175226,-17.153559625519797,15.118429756115946,-11.321326873677801
-20.378144492970552,-15.440642006708392,17.453165030504028,-5.245482112956205
-11.493479979642535,-11.461211545711564,10.937783783373447,2.011090660705675
-2.821130757457505,-7.368545419456581,-0.4652756042513356,7.792081265309002
3.1278990413016947,-4.378710619659402,-8.653455444572856,11.373676217354369
6.315094862458906,-2.0752513490740583,-7.566958638499453,13.099527025518208
7.884970654163535,0.42109937468122755,2.699510920154341,13.408668451700969
8.347400101678591,2.9204201538820476,16.731750577021256,12.500795827838365
7.171936239047277,4.243191392724614,27.864834004117085,10.256576884802985
3.988682272771206,3.7328429570377994,31.98712876909657,6.4055680150893375
-0.13905430523408419,2.2271564779459854,29.016949718460367,1.3206438495707356
-2.8777010356621964,1.3675410338773883,21.91746696363327,-3.251808101931461
-2.2618883843169026,2.1362074082327043,14.246979753683096,-4.949707792785255
1.5980817235795473,4.1091030846213075,8.00513722424705,-2.8563349217012384
6.381604987698236,5.950360721641342,3.4004268138575457,1.3674566707104738
9.33869508797522,6.618814323968527,0.27785081596131983,4.740315079609714
9.446951134971444,6.279390293973986,-1.0259974221617816,5.271729451619414
7.875845385102384,6.026337681896098,-0.8050161360870459,3.034513023448053
6.425478092013927,6.521120548875223,-1.4425912799852445,-0.44891324255169157
5.805661001320031,7.025958556509741,-6.492306703349233,-3.3373158417221
5.5637027431749555,6.225160826177363,-17.409278025826985,-4.407266316537447
5.219781427743548,4.074925986730877,-31.031153614603436,-3.8222370231770606
4.774146511623328,2.288700355119962,-40.46838521422953,-3.2620867866474264
4.02534837226145,2.5368250760165902,-39.05323507622759,-4.722209694470649
2.0629249294722043,4.401148298047969,-24.772479994638363,-8.67710938208695
-1.9394946907931,5.585021299019968,-2.3050020039768895,-13.452993896156269
-7.4150788300002795,4.1879656253719135,19.119580235363163,-16.50251646814612
-12.172062467166441,0.5826569313340764,31.216082918095093,-16.227812867109012
-13.638080933061923,-2.8279171521678723,31.56463209064801,-12.793004136272415
-10.58165274227791,-3.4857049319513855,23.906554908579142,-7.798993215827012
-4.156971550600753,-0.6563203579274509,13.949474576733174,-3.4473942361220433
2.331307935976592,3.710810375379773,4.928547750444318,-1.4733137186812455
5.054936476596068,5.92466008956562,-3.500366059169306,-2.1702056145247948
2.069324647251711,3.118339535226524,-13.290007416018653,-4.301616298751209
-5.040641420099897,-4.23396812472798,-25.296300572448054,-6.107868531798867
-11.7535280595469,-12.153323212408143,-37.58122683404686,-6.297843793248821
-13.3045187234291,-15.85962542113281,-45.63226083777937,-4.066007625735077
-7.6517465647657215,-13.117611093913059,-44.78612715099511,1.1189003057665483
3.1789587025585546,-5.493651924323493,-33.517665357213914,8.750575866145446
14.015099604844176,3.009276045611037,-14.878772316332487,16.24583275464438
19.196086397171022,8.38480468127412,5.290202741476059,19.66285813488007
15.733413162472905,8.558271491797836,21.760528457557214,16.44997295867484
5.21453595061681,4.201033225036185,32.24883424138265,7.763462960081419
-7.028638985155648,-1.7932009562047022,37.61226813663228,-2.027135109673869
-15.184994821955087,-6.0474100633073755,40.44837737720572,-8.235533721402753
-16.326087352056067,-6.643823380464335,42.843338615893934,-8.728935653651407
-11.504645012168375,-3.9178538278024617,44.180488040310344,-4.862024474716779
-4.3248805558870815,0.17760169395187264,40.80493964095313,-0.16809007166871265
1.4461689694982596,3.2660926366564516,29.026040567621603,2.264647797801261
3.6919667786412314,3.6251096196074424,9.910973694895722,1.957865612234976
2.6290128150989003,1.1002161731910491,-8.850586858937207,0.9887866786086067
0.3343962731714164,-2.5412253485292777,-17.371359212578124,1.7348512142934875
-0.6718949811632053,-4.627793806049911,-11.544283788893889,4.695091456766134
0.9562449563551858,-3.6739300105358814,2.6261287752728504,8.504217198999124
4.634004824748833,-0.6813141605921749,12.719286193543685,11.566542226709636
8.381785108740297,1.751957510480704,8.676171408046454,13.07935492350925
10.113506982231627,1.6677654014109495,-10.281260242734707,12.680433100290305
8.848148977190927,-0.7448453996249766,-35.15203814430263,10.02652260499371
5.306363999278488,-3.428686676632218,-52.765268484370196,5.260893040130778
1.5505679781495747,-4.028768153877918,-53.84961531654499,-0.39671094393392903
-0.37661703239907984,-1.6928663116606544,-38.687678072430636,-4.942609144047261
-0.00987554474149285,1.9957767530828752,-16.50105502249024,-6.552707496715571
1.1965443168257894,3.924416733864962,1.209782478360008,-4.499440318922715
1.2559800717124368,2.006187177519122,8.215024566948507,0.23202971736881634
-0.5275840848600719,-2.717748537035286,6.0879678864334394,4.92940738627035
-3.096550381824736,-6.71913266011517,0.5731373187912203,6.38540336477968
-4.782802523053532,-6.98649708069017,-4.060842270422206,3.067543864725075
-4.683649532128111,-3.400531137184242,-7.719810513579741,-3.6523251451663628
-3.101687357093176,1.6743668699547025,-12.566758930809833,-10.60780365624549
-1.1275051619056404,5.593472041084967,-18.77554677797439,-15.138345938936979
0.07033555135221421,7.057834547620909,-22.20997631757944,-16.24351950824246
-0.029881861516979105,6.2885716089956585,-16.850768879775455,-14.084549909689171
-0.8794242882481212,4.470786248774609,-0.38267426998335285,-9.332149655060771
-1.2398295781476874,3.037499897307244,22.29326998319576,-3.240780892370535
-0.2631768018372982,2.8407001494106954,41.455053124191096,2.365761780698061
1.7373957276323941,3.641287312809063,49.11503387069699,5.868850338093211
3.598947173898955,4.517105528019873,44.15328135318459,6.645092668729118
4.229924699640617,4.78034331677876,32.17802331793241,5.044831372765985
3.134831286734182,4.256928788781829,20.976890226690507,1.9664693852780315
0.33489269351407197,2.73209675608199,15.296617881106787,-1.2953571303590057
-3.7444026490997504,-0.33060133717964857,14.275906264717637,-3.2369966056230703
-8.150291683352245,-5.095608035150097,12.8336889686691,-2.874882616221212
-11.401759814049294,-10.468954388943231,6.10170716336089,-0.45097549933184194
-11.907190659182321,-14.15359406939743,-6.003154859778608,2.7944477344095855
-8.678886793632309,-13.766287698494603,-17.717467509392918,5.519093670000335
-2.0881116073062054,-8.332079701592892,-21.427348550900533,6.814469063455242
5.724263866435485,0.6429064203722918,-13.878985341766708,6.19375278326688
11.450579072061341,9.412691527580359,0.8815760331657457,3.6676967211576588
12.485170270743392,14.09006521401149,14.679930589081513,-0.06530977359655209
8.917870412710473,13.512386993297843,21.520780401391487,-3.9563004034312463
3.7357878135350946,10.252460693904345,21.19816261268939,-7.332974912522487
0.6441301442375628,8.292307574446642,17.339758793376898,-10.005445378670137
1.2267362928532193,9.261285961137764,12.415139391522784,-11.594956969508532
3.8757566803535672,10.915908315446174,4.911672231292583,-11.279919538144489
5.283477064944815,9.363336613420042,-8.25072950083637,-8.615097305000756
3.1403783153980895,2.8289534637825167,-26.19322667777498,-4.3574432433750525
-2.0558838055593065,-6.464377581415334,-41.4562328025053,-0.10228160175509621
-7.348087665865614,-13.763540555020613,-44.45932372667178,2.823234010452147
-9.547813006844166,-15.295464988912867,-32.03255864180936,3.991722062328054
-7.626700601206687,-11.092086504381202,-11.608199804568567,3.8491355936753386
-3.2375793846554517,-4.874065487668539,3.9428242659033628,3.57630498462408
1.0564012795841926,-0.9633546517745184,6.320424428710748,4.674321849659826
3.912517913154375,-0.89665722838582,-2.807757705270282,7.793262974525166
5.458103247894093,-2.880672844388512,-15.225893315441496,11.582348155387931
5.851772006296192,-4.312261546088239,-23.75581070670198,13.149129797807891
4.444948497134263,-4.346436827752293,-26.736335595825025,10.219379638192576
0.7613550802190961,-3.9008287964605874,-26.78041423407153,3.0704512957340317
-4.117759114267092,-3.8278223363178046,-26.55356014334199,-5.44998050143061
-7.7022169896118,-3.796004286703854,-25.75526071168975,-11.553860326627294
-7.763880583503251,-2.865482025602069,-21.644544492491697,-12.504074670601948
-3.9828039566974973,-0.6405168342849514,-12.388284055174859,-8.090331581504177
1.5906321640570285,2.1614634610873824,0.09554452571796893,-0.9738966791382369
5.459307053740266,3.9080937861091525,11.025084263778753,4.731802794497679
4.730512568851484,2.9802015011988034,16.975942482076732,6.188989918748429
-0.6283313720870806,-0.7300407746000208,19.240602007586773,3.7692892598239767
-7.147875390980031,-4.9286367079140785,22.640894866355413,0.4001126424807817
-10.04645493633146,-6.171835320568817,30.73785412984225,-0.9479235050967695
-6.894747735927752,-2.7855883468485088,42.070610855076865,0.7547418156012277
0.45537836603140514,3.389672536338487,50.876834988417805,4.416642017465376
7.4330016343409095,8.442922125498315,51.3469376082192,7.820767792429439
10.207978047897962,9.569700754107613,41.66770714683507,8.861259803585357
7.995416413276318,6.832718056116083,25.147634628258455,6.690038426456552
2.8069978364267048,2.378424384119315,8.428567056124443,2.3092890711313916
-2.370097637682253,-1.3511950977960965,-1.6746961270161762,-2.0714477734421872
-5.2674965362435,-2.7449350349041213,-1.1814780299592818,-4.576280374208573
-5.0221946686550645,-1.3460327717828648,9.162228369233036,-4.643042925586851
-2.00417289618284,2.1065450779834602,23.52864367713311,-2.7200442123223323
2.562923200037986,5.848628891901356,32.464964860031586,0.3665302864483423
6.752803960802425,7.6422167976876665,26.644929089317454,3.4195177079088723
8.197535596425404,5.676590234084927,2.5841445623649175,4.828935012787664
5.165659766096508,-0.3174528572321907,-32.72930725324739,3.371542848995298
-1.816729073867353,-8.186729842783846,-63.18667228841543,-0.7635492807282134
-9.48606800874389,-13.808170181282764,-72.5510820102205,-6.040406644627418
-13.76269415595908,-13.575227783116725,-55.5723135002097,-10.668734959968287
-12.815336988272827,-7.421324516863953,-22.154225241638393,-13.446232380675449
-8.352023832973055,0.6612595427686406,9.285196217611412,-13.85278903903665
-3.849041720070792,5.68491744542542,23.874217991137872,-12.040572219141065
-1.58338758606971,5.560016751518865,18.459083065266483,-8.917731046737359
-1.2584490582289252,2.12276330596932,0.89307036870889,-5.68430886489138
-0.9911568276669505,-1.2027421026195482,-17.370872435631373,-2.8743167520072253
0.7567135565509031,-2.331688333211208,-29.08747547796962,-0.08485390104553985
3.9614086059421085,-1.4924634373623513,-33.81379901999873,3.1210960946278457
7.173221067831337,-0.19374674612061304,-34.22213831642868,6.34993102531174
8.717262639476031,0.36364231635162464,-30.63265236095808,8.724801468762811
8.064570349701809,0.21290576516621834,-19.941896932328063,9.852956033280794
6.257817158154138,0.3851783983466208,-0.3295358073791151,10.091913944675294
4.98331814460682,1.7362958864871598,23.580325559242482,10.012546491563917
5.20019021108899,3.9163484726697586,41.46187903652375,9.951412015764815
6.631103988551904,5.647195514530447,44.32979831933251,9.964406648336317
8.300282159324187,6.071651763955785,31.85096678316279,9.786160279135983
9.21818543253747,5.562402727191052,13.387484402603514,8.808176074983853
8.659100289657612,5.052241513998306,1.4404962098833674,6.4944351350267455
6.356823424378257,4.866681880141885,2.2470414903089817,2.9854288050281355
2.825249376051826,4.5111236029910655,10.778856036289051,-0.912668513325719
-0.6614780463694485,3.4232598727370775,14.535652408784912,-4.356806965642776
-2.6967111282694516,1.6484804162935296,3.8493679349118994,-6.798191209847967
-2.4334333925527605,-0.04212676816335194,-19.274107859951776,-7.732759108713533
0.18599839234452564,-0.3736806346139257,-41.28732483600122,-6.738962538534449
4.395288391729434,1.8027306085966213,-46.625643831067784,-4.2252568025770145
8.42852175322457,6.354565693679357,-29.1378045651887,-1.8672730216799238
9.730103761081567,11.117461265024653,3.6000694369360304,-1.7510660968640448
6.226369425414981,12.903040304859593,35.88760686114773,-4.873188929192831
-1.9374492555316591,9.916001864359027,54.20214506096477,-10.398789713454784
-11.827027081381303,3.3026231654906457,54.29148372585511,-16.032489737318784
-19.169154528441137,-3.7832621799582564,41.04742589595345,-18.932481246468818
-20.91738923816852,-8.633914513582422,23.05349102461875,-16.916661531242482
-17.152045336550007,-10.715720455159229,6.822893366162651,-9.83184095948114
-11.010140694209769,-11.510293514152387,-5.269199602894642,-0.09371857163838516
-6.514237082764343,-12.902834282561544,-13.06393627510495,8.635803582299513
-5.6169845169238934,-15.3055066954524,-15.922279372237004,13.813294310790544
-6.819802014100676,-16.941775563974037,-12.677195098830458,15.172131141322135
-6.881758434515748,-15.274346230554897,-4.138185849457922,13.772301893723032
-4.241542739980682,-9.716314028558486,5.32896844170293,10.482350628603582
-0.6944029204641984,-2.9085774943691356,9.696188848664981,5.6449214033504465
0.498750628717729,1.1960181765988767,5.162295486628837,-0.24454751520284934
-1.9834209587376626,0.7380949476892447,-7.39029160961234,-6.086953012489406
-6.19545074677844,-2.6434207386079684,-22.852561160862752,-10.402090478163695
-8.774125831674686,-5.608315469442768,-34.35197302850695,-11.874519945812226
-7.800808949127541,-5.926478530389487,-36.50904652921691,-10.043432948557472
-4.052675757929664,-3.692034556852415,-28.402721817132303,-5.917731797033634
-0.0049456563880560175,-0.5605591515849174,-14.49160034327149,-1.7433639413848407
2.218978234836057,1.7315447853975372,-2.2433884345034905,0.4202366756312444
2.3075537021976325,2.469232877035783,2.249438124999635,0.13497727210488886
1.6033664340173863,2.1956788017962197,-2.3144906445809674,-1.4610187670465813
1.6072303978190443,1.991091595336641,-11.849657812377412,-2.880166005205584
2.7102695112632924,2.4262483355779656,-18.977815942265998,-3.056975883927008
4.483069285568461,3.330861418594966,-16.919237512308463,-1.1734900844316165
6.872954760626194,4.566562919854876,-3.7085484512828195,3.285659241228484
10.3849311073431,6.500057979076594,15.878804512194895,9.66732416397538
14.788662440321069,9.229791621817393,32.79311702035139,15.713403767370725
18.247376467748428,11.644437285922125,39.31903079706341,18.73166786616074
18.522550053519577,11.989505365121639,33.60519858263046,17.543404214842642
15.188057045879491,9.590766420551736,19.927660834343573,13.377326003053025
10.31558063494952,5.630781461216921,5.29459849248838,9.076502145547206
6.817609970713753,2.032264547326445,-4.667894090317622,7.398415120675029
6.16164167759268,-0.12957166268367462,-8.235485498899875,9.340906389969737
7.485326869272387,-0.9976640099070186,-7.686833388704863,13.234986437271898
8.500046507687422,-1.1908777862050794,-7.01891336576328,15.448711064796107
7.209131843136999,-1.1070633417354738,-8.401674674869383,12.813375465166475
3.286262595607377,-0.7535242402230121,-10.002603990506964,5.119482803239982
-1.6902758944186507,0.12884541313431538,-7.534813470793202,-4.552288164849945
-5.364703374787321,1.708633355491195,1.3273715437314981,-11.986314366052106
-6.348446917403367,3.538110776318421,13.744629145083051,-14.53654649685908
-5.209028355786464,4.472108377023108,23.054738320506278,-12.44538674204589
-3.965713434040991,3.4542056660466325,23.617616244991343,-8.42825635575913
-4.659379064619873,0.4513517423636899,14.83454687600502,-6.068546694210696
-8.0319379789972,-3.4816370882175938,1.2268776507241195,-7.631207850889548
-12.88016751693448,-6.850401051807729,-10.69734845074759,-12.407982098230207
-16.39280374204803,-8.213707094096609,-15.916811432050118,-17.095741580355988
-15.758524741483962,-6.532415870205272,-12.83593707941193,-18.334644948159664
-10.436455796862166,-2.004938701600719,-3.7141980575802136,-15.267770907292208
-3.159718869504599,3.141654727159122,5.885429651532972,-9.803758248092992
1.8068680962581702,5.476944044383577,8.866637268996447,-4.702596700069127
2.005953540010292,2.9453496035632662,0.13331357782775077,-1.6058359627397383
-1.3329302474136653,-3.0928237966570498,-19.01957502390341,-0.5008181689274637
-4.598150706865265,-8.573719820038619,-38.9349804097908,-0.3755717317932168
-4.899118620055553,-9.673421225762809,-45.53991449979188,-0.22510305495722494
-2.173392495750357,-5.46269076260124,-29.5861422077358,0.17625699543046744
1.1713355960372271,1.5551883991591162,5.194566539503918,0.3026124116609865
2.431816986123891,7.074242217603991,42.45618536530923,-0.1168655381903616
0.8361058874966351,7.770573339667224,63.21946258443617,-0.2054299210498685
-1.8566564920855673,3.6415639456759696,58.230580277419286,1.3556495810698126
-2.9520664843405737,-1.9355775167539309,33.249314849928396,4.453608378214368
-1.33225246007584,-4.926777510273116,3.650555163888254,6.90746875453979
1.5075431957188519,-3.970892969731655,-16.923874278251244,6.321988017834965
3.0247907230717788,-1.1425040650158518,-24.985631582614346,2.5437752477675635
2.202211866882325,0.48480055260215466,-26.649386781080942,-2.006415794047799
0.4618190202213705,-0.24435071794546512,-29.611901912137913,-4.306384969311313
0.14335854656494437,-2.00729748011835,-35.34757301479041,-2.8756350767977352
2.2556768033498056,-2.7399830366192086,-38.36781086198066,1.4813913531788443
5.529268002410889,-1.5410267798728936,-32.217264904570754,6.214169842794312
7.2558958000179965,0.729371262960507,-15.755200775361457,8.34212456096487
5.130483167536123,2.132723111316039,5.805375630003393,6.262462349788118
-0.9653000688900432,1.0777813624512582,24.844852512458523,1.1030240114927767
-8.308997324178248,-2.216842791356933,36.10721634272458,-3.788505842156876
-12.606098305948978,-5.372827680649614,38.930722717981176,-5.227607102870045
-10.732461572986796,-5.364763074663019,36.34083353619644,-2.4853779485765726
-3.016902399849198,-0.9290710186264227,32.13821651103167,2.391552734606431
6.792539481077687,6.223114566157288,27.834952281999527,6.167218930112132
13.878791236161884,12.426486030725549,21.734755303371184,6.541464375211773
15.277991603572431,14.39026641581533,11.512478275316713,3.6526794851533633
11.472534165646914,11.169258801899232,-1.5897281917400397,0.2032329328189405
5.782683705762829,4.675866681538121,-11.60073262320792,-0.2620536124882533
1.9748018877465572,-1.560372311480097,-12.260438182441941,3.827235803548183
1.6765972440149075,-4.73412554982532,-3.464970845524468,10.448159391865865
3.5766244246419707,-4.505578755917497,7.103198858460762,15.310650378188265
5.053823248311516,-2.6202270923923052,9.632199966105354,15.072918027014916
4.586476196455943,-0.9216579731463966,0.23072044073695516,9.569097325009038
2.597399730508722,0.03136607035685748,-15.749646149730866,1.496672864962905
0.3378708225932843,0.5488476666334615,-27.672941637529856,-5.5319734138532075
-1.4455927598218796,0.7780138430297765,-27.446927296415645,-8.970282821666235
-2.6748268692603276,0.5983620388712932,-15.349601473491678,-8.526377968487807
-3.4814626235929795,0.1087677190231247,0.33741106502498475,-6.1450514250190595
-4.207320165834074,-0.5329811423476053,9.694589587897147,-4.542285010242322
-5.6303362516655335,-1.742265789441221,8.568734995600082,-5.11937831888402
-8.488494943768858,-4.316088840267961,0.7487634496642132,-7.065229343473449
-12.500276861353854,-8.332984759883008,-6.820105853613199,-8.46057202469177
-16.128867352229204,-12.607945355762126,-10.82642000670759,-8.081510017541794
-17.57432702808722,-15.481117154205862,-13.761643935175433,-6.154553282454123
-16.025180192219704,-15.921129540357889,-20.002157611523902,-3.8791515068583657
-12.005264089143587,-13.759561753565892,-30.235260796290355,-2.580948052043117
-6.645431003075066,-9.248065635503835,-39.38652219892481,-2.832309184136312
-0.5840279538419293,-2.764300830700929,-39.59429489746712,-3.6155495760496033
6.533108698591085,5.136818187868032,-26.047827006254526,-2.459517196919677
15.252028851277412,13.543921526096648,-1.6825403670109094,2.6097917037444804
24.578406505762906,20.91102740763631,22.99407210421473,10.588073692994454
31.097182533207175,24.967641225302415,35.82161507897392,17.23114004939578
30.635811074368522,23.591965231243066,31.05601068667253,17.92540870125237
21.718377566238075,16.61721298542659,13.618883813748786,11.326422126780155
7.638843856459767,6.835149206986285,-3.9420742819271655,0.6388255873611299
-5.239448296454978,-1.4911447358487673,-9.848863335376036,-8.31645156997153
-11.799277435768243,-5.708477004135728,-1.1424322110767335,-10.73229811314371
-11.458720085499786,-6.487899410798821,14.074570405353112,-5.953353041251347
-7.888416774987936,-6.517414821658743,22.087884788214897,1.7670161285686832
-5.769669691289095,-7.678099538285606,13.641720860443604,5.863227732996247
-7.313898086924701,-9.454519495777529,-8.183704004097953,2.194218480202913
-11.004872481800001,-9.695201824418938,-28.669552184396725,-7.5953869778460925
-13.199560876834422,-6.707789168485023,-31.464461107525974,-17.083938531055285
-11.210557220176357,-0.9799128403153212,-11.03710396063044,-19.74788546173126
-5.480920100469792,4.730015078989388,22.392290294488095,-13.485680294455621
0.7825301323534154,7.208002099594472,50.017169313381345,-1.7887082463913728
4.052226820885066,5.3012087041102305,58.109076481321814,8.67662479066959
2.9115524109242066,0.9145168147731451,46.90789021805482,12.207796361298076
-1.244438499175301,-2.6194490268754107,27.857846871523567,7.5837214493475935
-5.26310378612276,-3.2371661252628363,12.631716639781631,-1.1378582182651729
-6.0089848782520825,-1.2717988597519396,4.158786474418447,-7.411843931872595
-2.022300768997585,1.6544518178689,-2.662242918764477,-6.858004790202454
5.468199108951244,4.235469004034418,-12.23649356329558,-0.16206184017715147
12.860271231625525,5.965818999284058,-20.959832131569954,7.995269868558314
16.139042107891886,6.713453965949273,-19.419098369952213,12.657802406372557
13.462906692862797,6.377132145055222,-2.446911981760674,11.781171868949277
6.451184549072222,4.932583912041112,23.257972158201966,6.956809163849801
-0.8821117140014624,2.6229721251146696,42.379521756632634,1.8450972268851396
-4.759328162601431,0.1373714268016399,42.72494842407627,-0.49120941301434207
-3.9951156012169498,-1.4533839988068211,24.71344009595576,0.2218111212071416
-0.5436082536883655,-1.3145104226302278,0.36534606005019954,1.404025455425511
2.1634864481301106,0.34391667433655,-16.6484006192601,0.03751411682715699
1.996929404828437,2.2827953602203155,-21.160280694966662,-4.4494662010323704
-0.17196857708223134,3.3046462104481673,-18.916478081251466,-9.5498901111862
-1.4642288921312097,3.1507810052461704,-19.970322497848592,-11.714663862984683
0.12319090222336551,2.1177317592979388,-29.06550489238865,-8.879290032096124
3.6751918762751097,0.063164317408268,-41.56733084709237,-1.5144275635955096
6.070023279488589,-3.636148661119517,-48.46746075794016,7.742807882640179
4.655110188086866,-8.93819096322365,-45.114907960827296,15.101401415644771
-0.5285870864003159,-14.229000134096365,-34.74875992374314,17.233307935816946
-6.662858914884231,-16.889409989278438,-23.971963845934425,13.244334840863084
-10.15459905820079,-15.036213669951536,-15.98467822401802,5.489521601130613
-9.368338192243073,-9.168638482597816,-8.724202460926005,-1.9539123486726324
-6.1355903443869515,-2.5328371958189955,1.2514638289720248,-5.990302022863358
-4.5098282910869045,0.45507682561662055,13.934404341313101,-5.9844487060103315
-7.2451549587793735,-2.7000005407183276,24.564089465800595,-3.267429839491181
-12.931521719838175,-10.078190228558288,26.542140442911634,0.0432406009100038
-16.757136224600334,-16.043632629648336,16.34844740196634,1.8532453116814502
-14.556925332230199,-15.276546237270933,-2.7634210279818054,0.7617604318132549
-6.394989992744181,-6.8078205235990294,-21.183419299156167,-3.2258356371868184
3.631172264787737,5.540976404257451,-28.255603752390474,-8.58905480695705
10.846046823167132,16.30107047300389,-19.489339178547752,-13.10603629909259
13.315691185849087,21.882794201123044,-0.15876665438478366,-14.890634800681868
12.430041898050286,21.905520087386453,18.128034038916848,-13.047563232892246
10.951903394871508,18.39631558286449,25.587765940625093,-8.13544154157571
10.554852381438254,14.152066918418768,20.827189885242564,-2.3627595216195285
10.76836887856998,11.15981707617706,10.978836367450759,1.3483167107200726
9.948357712604292,9.694911611143713,5.765191667145382,1.4933077738561376
7.238817818871733,8.626583710621706,10.113158834951008,-0.5304719580691292
3.560763341137971,6.610053787091156,20.623117728802796,-1.4369843188369373
0.5898157560374363,3.011651144251208,28.490147307368535,1.124408279165915
-1.1099087007401567,-1.995832856485578,26.83892951598462,6.546478362125886
-2.63198778806315,-7.574758231847275,16.60134684894008,11.662127447898248
-5.357000221042241,-12.209425161974986,5.69293817061725,12.937815205002485
-9.27127385731509,-14.17855360296455,1.992668799943254,8.888033642764178
-12.72084320514912,-12.812220807170117,6.393085569369014,1.3794309918368857
-13.61402303042761,-9.322121251384829,11.9811126006484,-5.164065326862924
-10.877193652250181,-5.9586900852151095,9.75941837911253,-6.669599536931595
-5.254502254606708,-4.2280675741727345,-3.81650825093343,-2.4780236817847388
0.8610316305916031,-4.0677702937576345,-23.060781153905737,4.226200491190765
4.670536669976865,-4.507351652329002,-36.02418460006156,9.154172523200181
4.850255256331031,-4.565900129058191,-32.84913994352214,10.159000250744711
2.71276879446843,-3.4536432789252243,-13.723724000769755,8.107828728650826
1.3956264788477515,-0.5858473123484119,10.249515865434965,5.340786688488421
3.4843005030528333,3.9667590574478275,24.748154791585304,3.777109801813631
8.992721977751833,9.082035617029103,22.525748345385477,4.030843408236898
15.274672874407973,13.00134208647793,8.136165809871267,5.4212478604920795
18.7814835051819,14.317289109407643,-6.085600375597435,6.5516408338146945
17.366758192202354,12.699668198387446,-9.222759416092298,6.320351324545354
11.687855865444215,9.00263666986145,0.3861168059044888,4.695389081003089
4.752913794091145,4.831317196996758,13.859526504615687,2.4411798317729523
-0.24898541552100492,1.6124298111904134,18.179081168250484,0.17160768272366522
-2.2131208455019644,-0.3780770825192195,6.2071871069718,-2.013358882592963
-2.439049782296897,-1.9455925707964055,-17.15006170819522,-4.050550154206611
-2.7612066707523373,-3.56068776026809,-37.87239451464741,-5.6798687828146255
-3.618862059903635,-4.210357784847697,-42.82649300913621,-6.962904186057658
-4.158755382609009,-2.3225320005517003,-28.88502783023069,-8.562160724806974
-3.9214902828474116,1.9766534969291414,-4.292885387924927,-11.004083206029904
-3.857642361794599,6.053876920698174,17.89178348946777,-13.811009666150154
-5.477320506584113,6.698686482885917,28.58542469511073,-15.731615102637274
-9.166981694902846,2.893786358509626,27.31625103297477,-15.76097973730896
-13.422208724849908,-3.3125363328802813,20.104350916005423,-13.720142119705562
-15.714712953418866,-8.448063260135614,13.030681536915726,-10.11362262038593
-14.398256972066182,-10.194929825317736,7.183894187531751,-5.904550750528193
-10.254175525038658,-8.95629888611913,-0.41772243759024097,-2.3025616732565815
-6.217992137103893,-7.318928100898307,-10.947282360727074,-0.12404933001776738
-5.044596676046151,-7.657708532569939,-19.48633341497715,0.8972977852944077
-6.729818123990362,-9.711079169103577,-17.918082950108683,1.831101439419715
-8.214563288736118,-10.489758536184178,-2.9199386175977002,3.411806414385862
-5.893956351364181,-6.966847598512737,19.09709800329685,5.435369033135407
1.2982962522927548,0.9124967708101189,35.4710823943212,7.286820908879583
10.868724356516195,9.824460176521923,36.128854268720104,8.528696232989565
18.34493294361287,15.463501667664207,20.194458930970058,8.718367544399598
20.017692260314018,15.355665860730829,-4.103837065638538,7.2613967076739385
15.166349603433,10.040526430945965,-25.035917591820912,4.167346902744728
6.708863722871661,2.515181918574826,-34.42418748613358,0.8194274185012511
-0.2740349968867719,-3.343109186657812,-32.040356783883695,-0.6673081941912997
-1.7513512084367848,-4.904822220231144,-24.623167563818132,0.8666696898647339
2.256178092997776,-2.598846465315774,-20.08011277185779,4.651856973560551
7.37139743642634,0.1379177071088201,-21.42447752594305,8.507459757450498
7.92381874492135,-0.6461928783712149,-25.435231300225766,10.07141787638249
1.2480140383098863,-6.208392927045052,-26.488193296352154,7.961481104707927
-10.019509152579436,-13.867734926043392,-21.36888986928355,2.6950332753177064
-19.40171731451059,-18.761356461779503,-11.105191024464505,-3.1393910189103127
-20.876707664493136,-17.20678928886498,0.5036733110169566,-6.213997246842669
-13.060454707562972,-9.261273387801875,9.593129739580746,-4.758032353647963
-0.2412982661989257,1.2259260284162934,14.26009389514519,0.12244412749564958
10.571280632702592,9.12850841691028,14.958031708485628,5.2671038931143075
14.318480843713225,11.402447774676245,13.31274244340568,7.502385614684281
10.733567251847496,8.793575113289974,10.594984558824544,5.313076292111856
3.635361936141217,4.691119642615956,7.401826583015742,-0.4539616535228687
-2.057995726236311,2.428897070468593,4.647326518295344,-6.895945332200222
-3.1811695224473526,3.411857407261321,4.264515113895212,-10.611232601474258
0.2917500137792709,6.9704347048086195,8.33222422098055,-10.007751911682853
5.451642172120401,11.030997349257348,17.275105589943657,-6.446331144189084
8.17567414394684,12.89834042989407,28.790075690956044,-2.8195106055180195
5.918689345524276,10.558350735956852,38.2503952932852,-0.9048291825854002
-0.1394812798460766,4.368887740772747,40.262491884593835,-0.28868327176930625
-5.714045954021413,-2.552228179123526,31.095800094723185,0.34348806885487543
-6.813582619959953,-6.419041215474728,11.62159757468534,1.5013371738408905
-3.033728004675908,-5.738546854206176,-11.011851730117016,2.6336912073832415
2.3040298764474003,-2.1953971823983345,-25.61928171243408,3.0020681115094487
5.146754496108755,1.2455287710065972,-23.438719215314947,2.367283784030424
3.906768313589716,2.7732514237763746,-4.760632233151642,1.0651749559986252
0.18186803387060108,2.444094015142999,19.865346619201528,-0.20845089744876524
-3.0600284005409097,1.239238850022234,35.67232341594184,-0.7771882231605349
-3.8261190779036287,-0.03747838769696678,33.002529794248,-0.3898823252352312
-2.057544471013303,-1.0902110085186443,13.337985957085397,0.8197139430673025
1.098449327704867,-1.8327910234725084,-12.19848979676828,2.7951440633759725
4.4750913291146155,-2.0488145715557664,-30.785479120388267,5.537812873270541
7.2078697205198665,-1.5143209177004555,-36.36171817440109,8.296688858605167
8.265486831139588,-0.5668236296187361,-31.9988326507413,9.29948900531387
6.51185256569821,-0.3120710957724069,-24.66935932181569,7.19453239781293
1.9396921922528145,-1.66602648856949,-17.859230419980015,2.9042622821709796
-3.2692974002791733,-3.87203149628006,-9.195263768146294,-0.6659399267769412
-5.715287886304242,-4.3823303490464145,5.284995361870193,-1.3086231844648382
-3.4763463615485755,-0.8927563023762463,25.096685002656493,0.21975453807631304
2.0708570774093342,6.239223199080695,43.15710406282374,0.835491798144491
7.218505241654115,13.6703504032038,49.092824798760944,-2.020974760900742
8.662750448162322,17.160198751326107,35.756989847371116,-8.055139784907817
5.4562417946469415,14.181939279619234,5.056972551022846,-14.174371916841693
-0.9946530928480618,5.328677453009894,-31.087979004099264,-16.748686526543587
-8.082848079089027,-5.842345503927209,-56.74086434383658,-14.453629738558796
-13.244170127116853,-14.39195518005967,-61.77779401466305,-9.516630794276892
-15.028164504640158,-16.755769786565757,-48.27700305562002,-5.988588679768183
-13.836583507393515,-13.297130801484416,-28.32791056249221,-6.191975814348834
-11.715428192710837,-8.320029869099809,-15.177234487630981,-8.686039882134592
-10.906939768883971,-6.766476297700174,-14.563361118575202,-9.863112418663718
-12.012389099546574,-10.092212968175915,-21.97704744775191,-7.400778713522702
-13.238638497465924,-15.010049456759075,-26.9199921334795,-1.929734028590926
-11.515400372596137,-16.217873573726237,-20.8567653374013,4.272831065665127
-4.851381328934113,-10.649043682758558,-3.256962254747624,9.43987227893948
5.783761626136455,0.23165646257762915,18.72602997135106,13.095309351988101
16.665858026903397,11.619763345624401,36.34154030057945,15.483973007446718
23.696571576706106,18.837484775393225,45.283086886575084,16.814069335408696
25.086049238355653,20.29567429778797,46.279804731258736,16.878144454820173
22.05611340964392,17.6944656482472,41.111121913670864,15.177630469481825
17.19926189573853,13.643802749809769,29.9313660510802,11.705473406286094
12.42095895398486,9.334609764418898,13.393981244529982,7.816556279097642
8.402626230870796,4.650840382464533,-3.6965520860517556,5.7869191351854745
5.395922300732609,0.08518958020459418,-12.931900909476207,6.7683805225364155
3.7441698333753797,-2.41770049266106,-7.923027826306252,9.18058674279705
3.4355969927650127,-1.1100379579095165,9.977186769586599,9.724737051381258
3.5508407656326897,3.2602007620942928,31.038553239677054,6.289693245521919
2.5134041539636804,7.2369427580483405,42.40811867666153,-0.2664454798751164
-1.0108196308098736,6.977540954817635,36.06899156751041,-7.094410201373299
-7.2161234145366695,1.1222831348702864,14.614824698551152,-11.691944412636463
-14.706201247971041,-8.013666951023296,-9.668604044113811,-13.359376420952316
-20.89640224350981,-15.80381025492335,-23.208763099289385,-13.103611900579038
-23.50533819968358,-18.469513871302055,-21.348956498506933,-12.652447876643572
-22.328789858274803,-15.854104964136102,-11.512125791322477,-13.309727922197663
-19.607171298605657,-11.415709778237924,-6.079544568372761,-15.273711891922979
-18.2915454804123,-9.174389783031568,-11.603977094885401,-17.910505986332705
-19.65084559132603,-10.373832098520882,-24.300095870655,-20.55440334465329
-22.292637716864487,-12.963919887592374,-34.923747824256665,-22.621370786201236
-23.105781015660764,-13.888115007753639,-37.22499431312885,-22.856931608351516
-19.081019939369117,-11.393537886649378,-32.191797815574304,-19.276968564186063
-8.995921649219344,-5.475187602540791,-25.43595386333765,-10.824062068604885
5.51485294918335,2.7387674092119934,-21.18033254868303,0.8401595120365497
20.12990630974324,11.274460185964777,-18.53132022387863,11.827752846871755
29.79296812633585,17.540400741291613,-13.144699774952235,18.693546558688343
31.66234233868211,19.445718745478047,-2.30634564993762,20.65053877334313
26.963171460462945,16.937524917681916,11.734803073673106,19.488834943968193
20.20027140044475,12.356320946165889,23.395466348046075,17.903315948141937
16.210119585464057,8.964450204552744,28.44696067121871,17.819256128200177
17.038326450313704,8.728891780679925,27.15948166904888,19.418761245723022
20.65691211853744,10.974459554495438,23.468780153883944,21.098939506365618
22.468522235760055,12.818075661042633,21.496865510750332,20.67145691980133
18.8203090463597,11.229474597332194,22.223948159094142,17.249419053230785
10.035539549247087,5.449374056583084,22.381718689608785,12.09617251884197
0.3716571713848495,-2.1468641120198617,16.553919055521895,7.449698405551495
-5.244548531342448,-7.677741649017801,1.9332169341071255,4.584844487875821
-4.849687733984311,-8.51271401404067,-17.367019437716923,3.1101854078638835
-0.35478233120824704,-4.724728735502255,-30.914192002760647,1.7952547917682145
4.464653207390695,1.5394603896762806,-28.875857805456906,-0.3360025187706546
6.512013671736148,7.4093923992291195,-10.3481414015727,-3.49960631869235
4.493885491421599,10.19859747754223,14.76784846698506,-7.129320246665946
-1.2415638621790013,8.264610015509247,33.05226164645408,-10.284805927827334
-9.173614615840155,2.161914531274503,37.822900017850266,-12.54400551181011
-17.104339419250696,-5.083867100526172,33.07126718232752,-14.59954301299912
-22.85614649041379,-9.719044833375504,27.903975430651986,-17.484795806396694
-24.981139075627933,-9.930366483264592,27.126976956894193,-20.93827786259939
-23.124171008990984,-6.9684033533337555,26.7186502992269,-22.931597591380694
-18.05033782959636,-3.7800373883344833,18.285267177502377,-21.25277369623235
-11.463368413956083,-2.653206952124099,-1.4735384643133844,-15.502776804278485
-5.471197663000073,-3.879218585575912,-25.180265019283674,-7.444839433337366
-1.6925436656899149,-6.06713878887659,-39.11022618533898,0.27618962470960173
-0.5520261931581725,-7.464291514318247,-34.35970115481085,5.553906165894829
-1.2897981456301624,-7.249795231655927,-14.76216766459736,7.565351691569455
-2.4808649136823666,-5.882899429173751,5.8253509657643585,6.982714722731629
-2.5522453097491247,-4.242825346711819,14.20955520995505,5.58505087244802
-0.3076541411628619,-2.487411867975042,6.992822704112853,5.079828541865149
4.3176075196012755,-0.027234866857694925,-8.761525459314141,5.877047428745644
9.785351491454692,3.2969612423966757,-22.362288864256424,7.037171849277213
13.698410688697598,6.430087261529414,-27.582110951562996,7.404464512020527
14.568833240024816,7.923161550920695,-26.039162469274206,6.612626355329036
12.929846192036836,7.384493586820424,-23.969530061814776,5.097619270359501
10.469686421737364,5.6357562153250536,-25.64967387057871,3.5576807458000945
8.006872689442076,3.365321967397071,-29.55071911859575,2.5017514139443655
4.533062073035099,0.11222466488399171,-30.64875496172403,1.922241143290159
-1.4715490504421422,-4.963200814060987,-25.95916924303646,1.2021347973931436
-9.608248803194021,-11.27694021704222,-17.201683424271167,-0.30128284756940676
-16.531690192405932,-16.062582312191026,-8.283266351371735,-2.3223763123617243
-17.877152587782966,-15.850127197102513,-1.1559761406564095,-3.686085848451344
-11.992576016399955,-9.310587449418616,5.4190737458213745,-3.6054189818022286
-2.1297874545369253,0.8966351006330892,13.63439359981617,-2.6896238293615284
5.462446713384548,9.268968494005478,23.685636889234793,-2.180393739521795
6.3581113053499765,11.210564434159535,32.54991609459098,-2.3383516785561005
1.373305822149403,6.380435978575207,35.09104457522401,-2.1208783866348004
-4.586468840677739,-1.3705306614064254,27.091937755394422,-0.500110612466833
-6.925421896422869,-7.283591951796351,9.008400124449297,2.3168931704864018
-4.713980781262611,-8.919228135037523,-12.185449717001386,5.015911831279267
-0.3375204789801527,-6.636041428911551,-25.723529848522684,6.103082377582413
3.3334259346158484,-1.954975766605107,-23.70452887993529,4.72319053989837
5.226042419858103,3.7479715594097622,-6.879032807829138,1.2633463461846608
6.196389034629047,9.23871980397615,15.387786482295509,-2.4080199406267906
7.594273396385877,13.146830020490576,31.28604018964362,-3.789055224526808
9.69697675611382,14.31322894966268,34.255056848233465,-1.6183994003345699
11.14854238738316,12.360518444275923,26.68443162586813,2.8588528095556742
9.869707951994306,7.862856328443962,17.18263513012131,6.6604949922513335
4.89907977506997,2.1962082323247105,13.481798329233044,7.185470381898475
-2.3301883694423964,-2.752841598910406,16.395847668935787,3.7975854310846056
-8.52942602946309,-5.2163299631412245,19.92902211238606,-1.996879946927265
-10.570725101268003,-4.389623315393665,17.65159083776208,-7.382851583857378
-7.366851438626918,-0.7594084433318944,9.39947664547921,-9.668458863490695
-0.3804957735719636,4.388071675128712,1.6073971944912824,-7.9547544942117145
7.215286422743761,9.55709255677408,0.8468632854620953,-3.911947146324355
12.062314832618059,13.114718808857711,6.99628061673897,-0.5422605036390076
12.206373932800336,13.375199968270959,12.550789249599042,0.2927820612877953
8.065013725070937,9.418666529573812,8.461541533007852,-0.7815404967137086
2.095784598236949,2.1036583056793097,-8.517606126585033,-1.6082719408416304
-2.7319725917397446,-5.978907024498086,-32.42518421756406,-0.42585829670790376
-4.554153657009648,-11.812968091049376,-51.00681611956891,3.0549320533644653
-3.289142631030156,-13.469935037489057,-53.4305070369493,7.6584342542196735
-0.3564961182572356,-10.919686393619127,-37.875346987475204,11.217897726094442
2.101355866735798,-5.985679670710591,-13.195934948572559,11.532799240111265
2.348916501324843,-1.406766179543899,7.248689903813237,7.850137589049078
0.2532166377990157,0.8536080040549547,14.94440941577024,1.749829857027459
-2.481638176992367,0.908233457508126,11.149535874124123,-3.7819550437682854
-3.73911225239973,0.4084633710529351,3.848198948970116,-6.45400813390702
-2.9293719628475583,0.5395722951540113,0.13985210232542827,-5.973158671475271
-1.3175474522253263,0.8740776496879588,0.7327465076018542,-3.6546183127362974
-0.3516161608125942,0.43310215870628027,0.663095670753521,-1.2340011227993914
-0.06389913836831972,-0.6350737356601696,-4.99713876254588,0.05612925768080014
0.5489564517932467,-1.103305117069867,-15.593631525255628,-0.05171178506196868
1.8567106571758207,-0.25981183132195984,-24.39511764745066,-0.8938678083302587
2.817810263140387,1.1894411564945533,-23.75568040992211,-1.62171892985184
1.9252189545053233,1.9347879806237709,-11.571150543325366,-2.1808696385027786
-1.3178188048444164,1.3284535345324824,6.615315039895656,-3.3435758928802266
-5.827948377837916,-0.2598030701508317,21.749656530855912,-5.566989939602635
-9.565519178460006,-1.8478306782236344,28.13784445433634,-8.087713277588636
-10.767675617490918,-2.3457901953435814,27.381033972739957,-9.445521400637276
-9.017329332674365,-1.1418825316535521,26.28075467507311,-8.708712641943409
-5.4732480212151104,1.2255468663511695,30.32100754914101,-5.925120319249122
-2.064615989848041,2.993896513102359,37.773568461443176,-1.7015561395553869
-0.27168678104852223,2.2160625694935523,39.67275280560134,3.0997410399078724
-0.4167583080421161,-1.742198218712003,27.05041104459046,7.345362625679127
-1.7379182730932097,-7.464010131476634,0.34281908214588186,9.981173869512613
-2.8455976302973864,-12.04210022122492,-27.847543872939756,10.729221634817549
-2.3186402799402073,-12.635408380451162,-40.929061549777174,10.22549262556908
0.499146957002565,-8.305899704889114,-31.351133300499043,9.390156077165551
4.858236044124725,-1.0106037871331401,-6.792212850003716,8.881941375142192
8.86684057366168,5.39030088187995,16.039018886955873,8.993613887113481
10.678257231090345,7.832440967173363,23.898566802532102,9.364928568576556
9.574163441569196,6.248415673953874,15.027270700276846,8.542135937245385
6.145401007662173,3.2190308462362083,-2.279005438379711,4.627461181453726
1.8664648634469883,1.569539720503801,-17.204996941270323,-2.7018440145599865
-1.4602994173804733,2.282810953315403,-23.6732969202613,-10.896453826278043
-2.6073832197828937,4.174585685258281,-23.006661255667655,-16.030571416043497
-2.1385986898050406,4.844011905905969,-21.135555062390043,-16.029661088799575
-2.643302020731802,2.0404723826682307,-22.77925474006035,-12.355510161703174
-6.794148368219844,-4.804004488190627,-27.247843383418456,-8.517255023994842
-14.39485806971634,-13.487045941189029,-29.395097708326862,-7.0277070203587115
-21.421939226679264,-19.71754812273077,-24.68538660836245,-7.512246816599061
-22.57372609003451,-19.820371125366087,-13.644459103381635,-7.2646485724851635
-15.377719353631951,-13.417885079665638,-1.9238827710755564,-3.7185696591646407
-2.3396129905208123,-3.6195906013602603,3.801913242546889,2.930828631819617
10.588604291356468,5.349589056720432,0.9253572924331896,9.219751895513623
17.928254819879456,10.802786282328704,-6.644896379082349,11.056465040651624
18.07100869611764,12.545662712657954,-10.772173288314065,7.515438068202604
13.80045680596169,12.087090522069342,-5.053951080775268,1.9926911953806006
9.70785952334635,11.194540803086705,9.920926952227031,-0.7429969487359389
8.649005894781581,10.766779663171212,26.558148131118404,1.2725594014153603
10.145284008049838,10.610183419534016,35.79195207086219,5.854620767699416
11.768983107351719,10.192021650214318,33.618092340980695,8.980262401923595
11.734425106088771,9.57755212197122,23.487700751417616,8.093178978877193
10.135373379336897,9.44480640919911,13.233629083858746,3.643877859270292
8.168559187518861,10.144212408527988,9.277383893391537,-1.7063128079353003
6.743203789976639,11.027074603817578,12.190309685025655,-5.155552835900975
5.8747886015773085,10.898305795575345,16.533302847689562,-5.623431714717906
4.932599591539715,8.974056633243682,15.379087283917892,-4.136637100392004
3.1180894245910626,5.295733987748434,6.6144258224576475,-2.5421075603080876
-0.15311377408917956,0.5330086034938288,-4.17479239137348,-1.9668747257155845
-4.98017117720931,-4.278568380806963,-7.674124298543331,-2.636391499314902
-10.824316529316906,-8.00353569761587,0.8729293335616831,-4.696929010686532
-16.419007055049974,-9.872881048423581,16.503365558827404,-8.216387655234179
-19.744301497479785,-9.793526861133657,27.838511772600217,-11.98743401481639
-18.51338907655575,-8.090964788036358,26.239581340634444,-13.105159873369884
-11.636419508114908,-5.200207982966743,12.507956964767676,-8.782399998001319
-0.9027734051598824,-2.020992186176817,-4.664925963449183,1.0670565432042607
9.068338108612966,-0.3286205428308722,-16.512711078205356,13.166237776877797
13.512818287595076,-1.910545926714783,-21.038406955184048,22.744983413287116
10.942096182844386,-6.688545231177371,-23.097639403083356,26.1875604467987
4.205660979610645,-11.933422164240575,-27.990699367456273,22.706549511289527
-1.7298200298840605,-13.84591198603626,-34.54065290562556,14.531900251654605
-3.1941571313671506,-10.184855542158529,-34.53115165869133,5.663456609348818
0.21479732152809003,-1.7133707863414878,-19.98389275062031,-0.39288796668650794
5.954058290961259,8.243017270483074,7.953261956709198,-2.4910801766640183
10.381086528107346,15.375252744357294,37.153715192630926,-1.7330413310185953
10.91941314164413,16.360414132458786,52.20781915394623,0.30249097349093507
7.375369004239146,10.642218866364658,45.43874882266323,2.8106114172371157
1.5892664883987528,0.9591528632571069,22.31386348807322,5.252971306549201
-4.230415401118437,-8.212178368791301,-2.6770519929162067,6.402971114633132
-8.939683894042611,-13.421374533857175,-16.32012237347718,4.731874180122442
-12.460007583855107,-14.026305187556611,-15.642736898816715,-0.18130386400879742
-14.849495856932831,-11.789857031058153,-9.105997612869597,-6.96453166887784
-15.854764427246275,-9.210790000253711,-9.292817525774396,-13.202647115832699
-15.407853417995055,-8.15653240682857,-22.977074624988166,-16.80967493132619
-14.212339192274651,-9.28275356587308,-46.25389983179708,-17.138058711984577
-13.570279292727074,-11.920469951344659,-67.51540713099709,-15.430392412525427
-14.552113181186417,-14.405009176642093,-74.68038198366831,-14.164223762444145
-17.128327399025743,-14.952063282358617,-61.451189602096115,-15.20199029605621
-19.7656372331923,-12.5695236027357,-30.105536222846098,-18.035322087809615
-19.872261375716583,-7.3194987503846205,9.411997546738375,-19.93174312048786
-15.206215309957305,-0.03568096191917252,43.94652718181428,-18.02708779312881
-5.49337123500414,7.946853309383079,63.645264687808115,-11.37531203404429
7.114709237855279,15.061056710830892,66.49912097543667,-1.3587239213446924
19.2373342844664,20.087054117529863,57.31550684150909,9.18655749484177
27.984675165728135,22.644185013437717,42.47377781261533,17.11370303069993
31.80966331041476,22.91513772686577,25.99377980874923,20.18184673482153
30.461780039347087,20.981043027921555,10.245075579423355,18.259711947198458
24.91581509592355,16.886285277682337,-1.4707642896393323,13.572285246509338
17.442253065128728,11.472398894312338,-5.262543224271686,9.314908813345902
11.097662610960763,6.651983630291766,-0.15001796878613294,7.644414421743195
8.350429918619831,4.353423689361723,9.751446530943127,8.722044111955226
9.637090299010104,5.085374528770624,17.46858358647756,11.120217787217387
12.911866050835082,7.492202891197264,17.892573148426,12.69486545473488
14.63391690922547,9.146456798831869,10.905648138494906,11.50416264322949
11.874895368472,7.962987180759091,0.9874910412471304,6.930968828684337
4.47309567314888,3.5877390518189065,-6.017462656070829,0.39968252496778045
-4.408044506102225,-2.0477371713739285,-7.207438894328618,-5.422176896890097
-10.290119448254156,-5.881556073200515,-5.320411568256949,-8.603139151277896
-10.731642472273354,-6.167535615570366,-6.877813409072495,-9.16219764398951
-7.148823360248338,-4.00495241361631,-15.9912995612629,-8.412518701922119
-3.4424603667060203,-2.2208081292551207,-29.17454155921831,-7.553785417143214
-2.838752136983667,-2.758825162590378,-37.066423154000915,-7.051729292903555
-5.821590180740137,-5.402579772238694,-32.50862928485333,-6.78141239550971
-10.491226155803588,-8.822248425666729,-17.623568478656544,-6.156502197516039
-14.349592347429711,-12.14621468542723,-3.0728256308697905,-4.356936824828603
-15.851417856657287,-15.163995704892098,0.2558751978659277,-1.1077361832589796
-14.901733463205812,-17.44950296753954,-9.668851330117764,2.6384185622496097
-12.368453509323748,-17.90993843865908,-23.743315062174798,5.188384573858225
-9.161296264559715,-15.367037899803252,-28.56644332916416,5.43100646442511
-5.673445754796465,-9.568448387671038,-17.21974448301284,3.5410896353892722
-2.0365777700633876,-1.837812011951051,4.895771341468484,0.5742716528206387
1.3301518739188505,5.170153113637459,24.12125108165622,-2.1480135196037486
3.807408390488095,8.838996676935421,28.95957784673637,-3.3131569732208765
5.284171154825106,8.431337054010045,18.237851768950527,-2.055476173783121
6.4277885668419,5.7803040798882614,1.1187995128260375,1.3157912542941743
7.961674740243057,3.8420161105257216,-10.001903688672192,5.2476853664923535
9.806977423072503,4.302002280923141,-7.955454839245823,8.024037272246304
11.172502581240291,6.5328156116989415,5.028672926288623,8.946887197051465
11.41613742221082,8.643706893447074,19.668694084207303,8.446635715057777
10.60974982376206,9.179324092371264,26.50907474460058,7.401991166746088
9.299585176870426,7.904679058150368,22.44928633280083,6.585477219689329
7.892337996051561,5.564596750778255,12.198607880542015,6.289939803424852
6.248558209647116,3.2443652665503473,3.6187256783431168,5.862955033395991
3.762240945065959,1.6721877466259385,0.9532432563790033,3.7881733709616823
0.0023519298603063717,0.7962935219031259,2.04140668719289,-0.9934390261454986
-4.437929703777733,0.14308634113452717,2.0809244875272688,-7.532797112098298
-7.845638351778403,-0.3023458816475219,0.02435133962342746,-13.037763410978734
-8.656076786927127,0.060693615788006895,0.6980728859083818,-14.941825090889173
-7.1209531021607475,1.3420428688344617,9.723370595631733,-12.820985118281683
-5.495995768622281,2.164479427487353,25.73557141791555,-8.446002341137058
-6.2136085281799,0.4349050293605204,38.0180870331352,-4.399564464680123
-9.742052098953065,-4.601548794246027,33.562739704233756,-2.6128191161928616
-14.198225001272787,-11.246181480191737,8.75356827039667,-3.4456575278774584
-16.916697556583845,-16.387882809858503,-24.802590882994892,-5.5087282120412535
-16.417151909354455,-17.64710454018981,-47.02448020087454,-6.613304124677232
-13.241022061149426,-14.80438732230894,-44.22081895681866,-5.519625783162376
-9.261718710783258,-9.67605909985005,-19.379203097195894,-2.8801522982352408
-6.068525506410799,-4.711857908159571,11.110629133140597,-0.26137229757549585
-3.62747762359203,-1.227834669123591,30.772231571285182,1.5980555129143434
-0.44875025652298883,1.3955461088771863,34.24084307253066,3.200087446143124
4.670903647724372,4.66242656901723,27.58317843537018,5.153700480835294
11.015068314920596,8.938236821171083,19.65115168580915,7.239970281348383
16.29680181279804,12.679144957327502,13.58131363387739,8.762900019430864
18.724729213453376,13.915880041557864,5.84554332145925,9.375756887774235
18.518810575134687,12.320672406582766,-7.455728336362097,9.298355212264575
17.323795200554947,9.495893799648982,-24.146831118653132,9.006624597979938
16.385830156891405,7.302580717561245,-36.44268104541772,8.886625763265492
15.42023659255745,6.182362757102536,-38.186492221283835,8.830895351848712
12.992160033017234,5.057397823621748,-31.20001641751787,7.884398687196314
7.818482949269412,2.5700824425836224,-23.645661645572275,4.655135373820394
0.012454257717538412,-1.558917036489299,-21.903335373150387,-1.3684771801440405
-8.51875515198388,-6.033805723420655,-24.464752291713253,-8.850582494266034
-14.969505674737494,-8.747813321958912,-23.891539375632448,-15.198783999197348
-17.410095363018822,-8.441851538525523,-14.413161995313903,-18.179042517624758
-16.039214285238295,-5.92860517901573,2.1818689359165453,-17.061815531123887
-12.772966190916833,-3.532998439271132,17.165861469607115,-12.76442697163911
-9.651258426802121,-3.0802221842132886,21.03751760937997,-7.427854736447525
-7.6150879240952145,-4.439502109363016,10.539339888354803,-3.5136733699375973
-6.441392417642006,-6.001415203446737,-8.401342658671073,-2.316015112369586
-5.291923611819894,-6.230958922015481,-24.145008857593673,-2.8701128816614503
-3.207977960545235,-4.559200824122266,-27.134115455398,-2.719062495907717
0.4265284966876526,-1.2071407081737762,-16.21797303025527,-0.20018474900803288
5.386557829185874,3.1920425499097482,1.5316586498464242,4.073457151269896
10.517011121557644,7.69565787979076,16.954041314513198,8.026526065157148
14.348797608877364,11.229237333142324,25.11112020631699,10.057197640563853
15.930218935279946,12.999498103955636,26.75015974656382,10.03278950905899
15.189761136898465,12.769171316417383,25.340931892744912,8.88815977553319
12.786718685017684,10.847845129019614,23.681545668630815,7.749653756546496
9.817739015248756,8.065729304809512,22.57115012245662,7.225336425723522
7.474268700598578,5.669712611489389,21.096951688542088,7.046221363584568
6.561035582865319,4.721340837543989,17.628041518072482,6.461474043521458
7.100670398209068,5.223897885165412,11.430011069567115,5.367440320975153
8.365043251827403,5.982335228291733,4.170717215308559,4.885424897230785
9.21577264063164,5.565287211633645,-0.4235269099980202,6.220773653023878
8.406758670134725,3.372853803333313,0.7618160383253875,8.838885081826746
4.964031135537256,-0.21132340043905717,7.266814415788147,10.305639871992792
-1.0739079958509854,-4.312416805915104,14.3356400166307,8.285235693410028
-8.092883141121156,-7.924160789273772,15.198020425236518,2.562728639649552
-13.5727665400293,-10.176748481636686,5.359716356055048,-4.849224162910753
-15.881239736362245,-10.875879329418005,-13.279947634504147,-11.110030880823455
-15.482666223494252,-10.811999434714073,-31.7414666556764,-13.977850220799303
-14.232978491329863,-11.081326383121059,-38.967221567113086,-12.699664064729498
-13.564130441675358,-11.932740437144414,-30.055169067131455,-8.405447684343109
-13.465834499230695,-12.529643253294322,-10.787936839671302,-3.6052861501652664
-12.979527271566026,-11.898157935635577,6.466859207480175,-0.6365678883560173
-11.288239208835993,-9.816555006278492,12.486369050812613,-0.19227794313342758
-8.337410738336802,-6.718676878772636,7.999218063912432,-1.2909625485332812
-4.757606673990612,-3.120236250124017,1.8356127277230025,-2.481663398108971
-1.349318967327501,0.6054982746590101,2.578408222948638,-2.9000240543135334
1.506947230228117,4.1472994823862805,11.028006426778255,-2.515733407007702
3.9949049979742246,7.242999526813041,19.466965706760497,-1.9979449028449447
6.266534375669874,9.605475576482421,18.07729393837147,-2.419607642714174
7.700261841911343,10.672137369043707,3.3927101765746333,-4.528564852192604
7.060887266003965,9.69459085316869,-17.961924759705166,-7.928182509993591
3.654314427607842,6.483582566185976,-33.47533893335652,-11.155360212412571
-1.7211199401845565,2.0020708185113505,-33.791176462587096,-12.750201908704568
-7.061044789356791,-2.150964017284087,-19.428112478548456,-12.112071052654093
-10.325552551786885,-4.890778569605921,0.0943518443480982,-9.368877366243877
-10.425291494776598,-6.048481108865987,13.796784228652603,-4.97907709521612
-7.565226968062242,-5.77010465472293,17.338847802759,0.1454965857879176
-3.1288998716572984,-4.104979780729498,15.321354490699715,4.55687124700206
0.8674351873242412,-1.477821752181699,15.948938205957752,7.035711830892392
2.805496441752988,0.8415746364392215,22.357933672251033,7.567718409100134
2.435179012689225,1.3135990762682805,28.371388860075548,7.232800477374885
0.9432357192268745,-0.6088417112649129,23.598257784202797,7.090315823194311
0.0803920379255745,-3.723562751213082,4.382162949084703,7.403539412962908
1.1801479032427131,-5.451802308220637,-19.748456386237905,7.792448851141076
4.657942502867838,-3.182861758993134,-31.732082357051063,7.640601974914569
9.858183971224552,3.921826497904821,-20.931851935063467,6.3483315017066255
15.1446862903374,13.681322580441138,7.128148434497994,3.8310875490315017
18.533049372140997,21.550525950936052,34.226515026797394,1.1248856267985248
18.78822960443072,23.360804923300783,42.91906322914609,0.054763623997907816
16.11924531559401,18.163573495918662,28.596788848181635,1.7639770942709967
11.820043878598023,8.714586727408461,1.283350172771977,5.590139074361966
7.365381230973444,-0.6223575635361669,-22.78379185725099,9.559538673135268
3.891916847840974,-6.453355716801966,-32.72138509129823,11.793489777001035
2.12762779208512,-7.5866266711661305,-29.35607545570275,11.333117356490964
2.192419443827452,-4.920287007534833,-22.17198795135116,8.170130920294593
3.2766859992527877,-0.7258951668907442,-19.910811454833908,3.2054287432003803
3.842228684509132,2.4307464599284794,-23.176472981613667,-1.8913177899461608
2.4733937772160637,2.9111929701833086,-25.423793310741544,-5.509454757091633
-1.3270893073011996,0.608342843098435,-20.56482920746886,-7.186886575067276
-6.94758891107024,-3.4946774616496463,-9.32648881957782,-7.703803560949115
-12.935740333306361,-8.142060326727012,1.423576551190599,-8.005135846868187
-17.480504771681076,-12.15853940326728,4.9810752904372615,-8.24570249047487
-19.114292170912687,-14.470112234201592,0.6510384997720224,-7.877039777485808
-17.390963011893874,-14.353143497416978,-5.7550723232242404,-6.295658070789488
-12.974088685653294,-11.766393933620561,-6.892335102285998,-3.349174126434724
-7.078407612658916,-7.256192206890788,-0.08965782755433632,0.3065085870921719
-0.9539139840187669,-1.6380619463689883,10.393473119457433,3.1267753806032927
4.1773507341393215,3.9636221519535577,16.921869378826553,3.519871805235375
7.219572609513757,7.986874110897377,14.673609660819297,1.3951023262651436
7.773389828888619,9.060675908128047,5.208657766023046,-1.27325309465771
6.61415665679066,7.201143627437915,-5.010813421372526,-1.9660876735057988
5.266893884859889,4.168568646745754,-9.171510517818671,0.17785760741602033
4.9284337483082385,2.259454164431516,-4.2128233370849255,3.8235020664798838
5.786280955656619,2.632881534279077,7.51744822161331,6.850092938782604
7.1863510734291385,4.7210115927943574,19.45954521878121,7.885170388028537
8.16037947856251,6.942343422559415,24.664435794041673,6.695279039566864
7.869238909151499,7.839210059579999,20.68428533006161,3.896145747804947
6.0323251974834164,6.941159994261416,11.92330800523268,0.6392369636094958
3.2583821702967724,5.054254300199514,6.395213830591437,-1.922387058432994
0.7739423375920756,3.6709424856647286,8.671180146765822,-3.398430450940485
-0.5235830926799415,3.6446153018295515,15.460859099556203,-4.328882825186649
-0.8773437530907565,4.241267266816037,18.518406597728713,-5.402744247258651
-1.5837736379653646,3.627069973961637,12.24359019634699,-6.732262429958085
-4.183229695097252,0.3488676857934616,-1.394639230146864,-8.097479513729777
-9.536114566022787,-5.620420475267491,-14.840899890054175,-9.528780743954659
-17.029004471541377,-12.854316845080463,-21.178159180273813,-11.143846862909685
-24.17657493786674,-18.93781555771627,-18.849050894464394,-12.535634916675052
-27.39883440896058,-21.203539893671145,-11.643855975194848,-12.839551537154342
-24.2181651598391,-18.06302576124023,-4.8791776998199525,-11.514147735659753
-15.343925224222218,-10.378155659936683,-1.0837069701297808,-8.765870058382365
-4.492747587899756,-1.325006593758435,1.4550139836476415,-5.202768690379119
4.186902755771873,5.656018772569943,6.143669286531187,-1.4056710854157455
8.765625407338907,9.015064432981672,13.949642483494303,2.1531340890284896
10.067374797543248,9.39271151625507,21.818854678165014,5.219180931819264
10.20565025916716,8.28910389015963,25.254907950743917,8.01034943631501
10.82600978624227,6.839429026140219,22.404219034006417,11.060607073297525
12.320332747495618,5.605674973238731,15.742570153429497,14.536773596426839
14.110642353660612,4.865513580840084,9.957217293578319,17.833772304067143
15.479276093970908,4.772575244241077,7.753920961092845,19.949841924757212
16.235343689936702,5.379886786351919,6.9495758690611185,20.055572441571936
16.59177138337847,6.549241654313933,1.8078128737988892,17.687538707183133
16.361466312750174,7.614311211908888,-11.517811531712992,12.95778002374314
14.526090657979207,7.186565308422114,-29.98522822596148,7.077313476775734
10.018467656421468,3.8617997838821014,-44.581955639912294,2.314400836144062
3.0761890852915688,-2.3738468136407502,-47.359289071147664,0.5877180854478593
-4.368024857180583,-9.492672360525209,-38.19806358932399,1.7508524944878385
-9.826273543646103,-14.508921148102539,-24.66476710321055,3.5239430132593994
-11.911633429974003,-15.42050805070945,-15.015386588606447,3.2977280804292284
-11.179103259948366,-12.317530414544306,-10.854436430227455,-0.030978537420181015
