TP9,AF7,AF8,TP10
-2.314262047225153,3.6949382928383496,2.8160288489504497,-4.737196729882011
-29.631358163212415,-78.17073687876089,19.885896509849967,18.93832360280147
-43.60924836838698,-132.30353250687335,20.395090349871804,35.9495912149099
-39.80855508591373,-149.58815035910078,-2.373398646771998,43.63734082496731
-24.643718572671432,-141.3901782005044,-40.2665250063693,43.928614258326846
-9.661601330569114,-125.36328707954556,-73.98040683104408,40.353551135647585
-3.405329757339063,-111.05723613237836,-85.00886936763699,34.9242365012015
-6.907303729189585,-97.78745641968442,-68.17626467608768,27.883862268366645
-14.87203250627809,-82.2376524090191,-34.99730576454299,19.762390816132843
-20.405452912054443,-65.05327311935834,-5.058911969998822,12.690081540863426
-19.667678944485658,-50.74061945772132,7.4217289545937755,9.286913496649193
-13.724729844621095,-43.57083045988304,1.4031498420788815,10.482468903013848
-6.879481341950065,-44.17446531724632,-13.519491279127918,14.525124627022063
-3.04486745856869,-48.72181680010341,-26.068292596928075,17.885722287031186
-3.045410950098045,-50.6998320934576,-30.62885170759231,17.281327895758352
-4.78543902347196,-44.705787110066375,-28.01766548828964,11.713989121372123
-5.622700004273223,-30.226966442121817,-21.47713654701933,3.3162807499708706
-4.562104351802814,-12.406795813342859,-13.532110196953857,-3.9895563887670416
-2.579933606245128,1.2022685358362917,-6.467743469771056,-7.414883096561768
-1.3321717589593978,5.508988267701591,-3.5842677821877205,-7.306760827344652
-1.619947866727898,0.957485889777342,-7.4911603401989675,-6.275944633451258
-2.751446370531952,-6.797352368944112,-16.522680088663027,-6.487566333635073
-3.152472712191998,-10.126555994952176,-23.947707564313117,-7.984957121894145
-1.7586016883624445,-3.949929577947403,-22.049134239307186,-9.377122726352582
0.9661335156918502,10.95768760242321,-7.94917291016991,-9.569881199202872
3.4401868361317454,28.404341494834842,13.581329868358575,-8.676115150823813
4.544122671448691,41.05650886417565,32.419670624126425,-7.651318621671879
4.7571299637705176,45.15170421181437,39.04869342895145,-7.30244407614068
5.62314270709562,41.871688156744,30.591278501623265,-7.416033191040771
8.165929331922689,35.22349170563348,13.0006930195411,-6.6817305690293844
11.917343989391826,29.30627583607695,-2.542399154810991,-3.7906783911227073
15.325857477282941,26.793865889164195,-6.987003266827124,1.0369993752546827
16.8960992569003,28.119439978315363,0.719800537474287,5.7577859015435005
16.111948242560437,31.176947413683983,13.669765260095383,8.084189499362594
13.714615582918016,32.714175189758016,22.70035745036293,7.395588319401595
11.227680089571237,31.15795591285178,23.058137019706116,4.966395595128369
9.868946901923497,28.026017485934663,16.95968751086054,2.497040618434361
9.601200050781484,26.19973285783305,10.85625475118216,0.7291358481598886
9.289956925186866,27.266557316339302,10.42809453575918,-0.6493874696250798
7.909039319695183,30.869992408139485,17.153265584547455,-2.26375759971133
5.47453708382473,35.58960723199552,28.00899037260259,-4.414913678299821
2.691629981743782,39.24458050473719,37.63790781130263,-6.873385480415538
-0.07257304229836947,39.042153155919586,41.61272568389963,-9.083275895668596
-3.091339224464103,33.36520096106128,39.11811279945113,-10.682647954991442
-6.493458635037577,24.02566542405012,33.136471795607214,-11.823835007081682
-9.404219217826777,15.575355767551168,27.556788079012627,-12.682449021386294
-10.098996671911644,11.377716972831914,23.42337074337961,-12.592068743231286
-7.242925614546717,10.51159719598899,17.899492366362782,-10.178416458826293
-1.3280825233426878,8.849296006600536,7.371458686540263,-4.876968424257408
4.925868844360427,3.0143514312171575,-7.851766316342017,1.7755879320089527
7.968128695348729,-6.5804231966077715,-21.84383846359432,6.830379889770233
5.952913738243938,-15.912111799839131,-26.85210450995795,8.143445974060734
0.3140898066728404,-20.449255802850033,-20.019599233879088,5.930098457159003
-5.331540812311227,-19.06046383199124,-6.970472571088074,2.301317407703015
-8.137305830688591,-15.532429811029829,1.6913438713497757,-0.5205771932181561
-7.9761004632403,-15.526513155155035,-1.6475349327559767,-1.728600749251971
-6.5811502284574255,-20.97431793886809,-16.175242948997887,-2.188582431973448
-5.171785347511713,-27.494141643583433,-34.08907258724695,-3.3491570075118955
-3.339692031971988,-28.14407465951491,-46.648661241533716,-5.627016875170115
-0.24828796121762242,-20.184946617501033,-49.35112898017011,-7.7383237857016915
3.4487924456570753,-8.231110411852082,-43.11428775824215,-7.856887092519634
5.213635426401933,-1.0342160414069292,-32.28256537640418,-5.551996200900128
2.4024511089526666,-5.170799938912096,-21.865294728381443,-2.3362588297402915
-5.157140026240913,-20.59156031736719,-15.662650128204922,-0.13728678732447477
-14.046537551990145,-40.37171570203914,-15.419518587512139,0.5416797205124545
-19.004868649602354,-54.268215986777776,-20.223317589803266,0.7642178033369521
-16.66222219416724,-54.324156990334146,-26.048650151512273,1.733769359319477
-8.280810236969462,-39.552425205237355,-26.893214103804823,3.5036056992943894
1.0574636169399472,-16.461793180679546,-18.52450242444681,4.917529567637032
6.284685654641598,5.155946813676863,-2.605049140792394,4.560728819944158
5.918633764653425,17.950831606313407,13.250032123179963,2.0377775825371525
2.560897038562131,20.389387174816974,21.070744085491157,-1.2071979276869265
0.40544932705478476,16.697266797215352,19.502551547333574,-2.5065257506477994
2.0132540137479653,14.284225205454714,15.51955393286257,-0.19629311988575104
6.54384585523199,19.316230826275497,18.598279624797293,4.323416215098423
10.365920040256958,31.823250400168625,32.0720097693791,7.130346485586432
9.66291240154554,44.1126347383156,49.17775753323556,5.000393735386325
3.4466082761395245,45.52471377029735,57.29005212823269,-1.6143438581157503
-5.25874541463293,30.78661988615572,46.99134083483232,-8.693041963015556
-11.290955814805494,4.793007473427763,19.149527200617285,-11.646558423661675
-11.03898249716959,-20.223210641087913,-14.65858484222573,-8.607880554963621
-5.019709124331089,-32.14678416539925,-38.189595251449084,-1.685285872740872
2.6590384341659172,-25.42072784694093,-39.36828967810022,4.457884518264897
7.369404966801765,-3.5398042665984377,-17.282281846159275,5.820814466553472
7.195989249252568,22.75294276948473,16.587695845669423,2.043660170170421
4.096916273011637,41.16217568800836,44.41354137500123,-3.2055076238796274
2.2387514883775768,44.95637215708334,52.48234779207611,-5.073432095560844
4.6348399599639905,36.3993972888935,39.37803783945188,-1.3017501141026515
10.58137306834965,23.37367035569762,15.9428070820342,6.315608061311953
16.02335322950949,12.404132841239221,-3.0584758148423865,13.685991540832902
16.636117680525743,4.4374668935031885,-9.371876359666423,17.358715124902215
11.055169897776047,-4.006525232692261,-6.171737865166056,16.358219052759313
1.7749104265642495,-16.69553249910684,-4.182926819871336,12.323469103150709
-6.479409991935395,-33.657404118575215,-12.245863609798032,8.40721296288226
-9.304809900447195,-49.028015157764315,-29.53067087086582,7.396832419341368
-4.690298925019771,-52.69775773705976,-45.284235853127754,9.915734753646692
5.89679527231098,-36.83298534968489,-46.36898979975739,14.07146068797874
17.776127621602445,-3.6380980939970144,-27.088113415754172,16.960644035978817
25.0713187520889,33.05353974045547,5.911688461529669,16.616817929989356
23.87712296395024,55.76479657570428,37.33917892610251,12.755312789808006
14.639270964136466,55.12930286545494,52.89686261217417,6.323083602441511
1.9430086764500711,35.55751088716806,47.67989483497513,-1.0965513424766282
-8.27330927308851,10.712919055092492,27.397687954084617,-7.733311994482744
-12.235269049940369,-6.463108072387988,2.747276354833732,-12.34839998170312
-10.31269428150434,-11.237913356543192,-17.38317957991438,-14.914836724075714
-6.204603913867222,-7.628086101465467,-28.90493046826126,-16.336608879977152
-3.904153189424887,-3.0322988368378403,-31.66317514625281,-17.314722809172082
-4.75107621562974,-1.7578996224891577,-27.680172382246127,-17.72043303857388
-7.003194765074346,-2.6414312965277142,-20.190662205658978,-17.190460020615376
-8.121028329036852,-2.215322143862208,-12.82261005036204,-15.948381535609103
-7.2588915205365785,0.66242350745354,-8.122562443504302,-14.637474332764938
-5.428595762743046,4.108838566829303,-6.1180325524670565,-13.458479368844163
-3.6758147708009092,6.550144428953065,-4.434185348310689,-11.838433812178236
-1.8377249249932004,8.93770891854773,-0.42804226328472433,-9.053588854828549
0.6951458611310665,12.822655151716793,6.291422092841475,-5.1090491080345615
3.4938517456490588,17.44236698727705,13.385703820658525,-1.1187380412588765
4.824920139135407,19.93093463633345,17.854737245978328,1.0505765980989816
2.829618884351294,17.845197442019078,18.43365090169853,-0.19485867882055402
-3.0170049301659074,10.673600847353857,15.995820219579358,-4.8971690713752665
-11.096964168333868,-0.10020584822630557,12.254410656593508,-10.961176168428976
-17.877477098979885,-10.817675656588625,8.778507175110143,-15.038505140713324
-19.50180049626868,-16.183077690339783,7.035812237189462,-14.477646682056687
-14.411166659755715,-12.577054521226872,8.149626343640898,-8.998554895177257
-5.190929713210259,-2.337786983008066,11.466839383420904,-1.0719498663134193
2.4517767752944053,6.125757242620198,13.398119157271378,5.161708258755841
3.477492061113544,4.155015233748134,8.962089911320284,6.115250883318066
-2.748213376357828,-10.051861147098718,-3.885138213586347,1.2167095254620832
-11.826921515754329,-29.18162511397251,-20.6902530947997,-6.189204185850652
-17.32725567496631,-41.0941979558156,-31.929538623825337,-10.909941765286206
-15.122033927098828,-36.53514058512273,-29.521599052842042,-9.773111840531834
-5.994379485345088,-15.452055008288578,-13.306585568816908,-3.8975326884544508
5.098955605228454,12.068599904215446,8.133405807337022,2.682376243355988
12.33256628469395,31.415921741795678,22.901129291900236,6.3454964389854736
12.449662352537684,32.34263114030779,22.96446355063688,5.905675809339432
6.138980719275552,14.92400815379851,8.261938178748498,2.297299681175313
-2.9675316545472485,-11.379383388931124,-13.92669439376079,-2.523716689350768
-10.355770745381117,-33.8771693951221,-33.21897629380757,-6.193394157541435
-12.492927645999197,-43.22231199131399,-41.644322347663596,-6.525132559258004
-8.184366544429711,-37.17230560058815,-37.60464980513738,-2.619549496184796
0.7638733723222021,-20.85925280099097,-25.964795869825963,4.308556410295299
10.263007672401434,-3.6638616514543085,-14.279188464952401,11.45780768715777
16.20317925875919,6.35587822017362,-7.846855108733565,16.056663843731627
16.88819275592469,7.352570650446128,-6.758827892793663,16.845978217378335
13.767418054854733,4.226759669416378,-6.309257663466815,14.607173858630718
10.048359513583819,4.417601657003211,-0.27615908550865476,11.610076937300796
8.507806456792409,12.433308588974946,14.498008704183729,10.190656865708416
9.999188648721567,26.820572198932926,34.75303247200793,11.199570535252187
13.202462724300213,40.66225038601636,51.41765401455083,13.552829373037646
15.51405095878478,45.05859251821845,54.78575657889851,15.37273341545754
14.75225348439397,34.62770884093253,41.173187753749666,15.573938515467123
10.837382162267817,12.35516233121738,16.072904608072772,14.350132214403484
6.156794157824439,-10.555546195821183,-8.902848592198572,12.494293751667826
4.026925510202503,-21.411470742951046,-23.12313876391669,10.714582841559189
6.259543668523178,-14.60901205292999,-22.706901526008558,9.48434565364224
11.694866714465336,5.139376089276126,-11.01885307761173,8.897070692198422
16.831051757601404,27.145543270420283,5.374846149647257,8.343085076142444
18.157205499498048,42.22441852727829,21.163018452079683,6.704033056850656
14.618003809932402,47.55665251813764,33.82174919027883,3.283804349124797
8.374584237351293,46.48209997285709,42.265140355792376,-1.5123356061734474
3.0262146704290416,44.105866645406806,45.01141291228316,-6.552954237865951
0.5283321847265843,41.85742942791289,40.054814375522795,-10.81427495144879
-0.44194879250237074,35.65965166423183,26.75670457587477,-13.704453729821353
-2.9534436916665228,20.40255722867924,7.972885385834913,-14.978475578407686
-8.516188631005411,-2.9739428704432425,-10.140631353085682,-14.848613021954117
-15.31211511313374,-25.67825730217086,-21.492562877502362,-14.077817028717137
-19.66532707298832,-37.58747196266782,-24.28603185892081,-13.468835103722242
-19.142146411128863,-35.70814287547997,-22.343818598741354,-13.157806242484986
-14.371039825204376,-25.86094688813434,-21.85558805682781,-12.724512433151823
-8.36205303213662,-16.571112738001162,-25.840180039027725,-12.016666448653
-4.364201293591651,-12.107673714061736,-30.98969811969065,-11.439320344060485
-3.9588970935800236,-10.998576194787267,-30.158482541169697,-11.249731253082905
-6.421919237670469,-9.78051690478509,-19.115055854641042,-10.946025554532307
-9.510688243164335,-7.29571459833065,-1.7382178201910912,-9.703087134076158
-11.056209167873442,-5.660923019858386,11.73979863281023,-7.28689001703837
-10.228561214275947,-7.633475655293887,12.585620749680128,-4.34380833273499
-7.669572536544593,-13.28774516572975,0.4095262630854903,-1.93459758330296
-4.723134834203746,-19.518445744284723,-17.190485019952472,-0.8987950277458746
-2.5925643293479173,-23.04152763492481,-31.10497169123734,-1.3402262111778855
-1.8557580938713287,-23.59366283249898,-36.87187408952892,-2.3646614147226725
-2.255049999147968,-23.53954271294979,-35.812065835773666,-2.5317991087241127
-2.8159861912140376,-24.305660056589733,-31.780210898717264,-1.088061535984309
-2.5057314128878136,-24.024826912091026,-27.2193109974439,1.1428595928713272
-1.0901679904963484,-19.262160943737893,-21.516340369069784,2.4000343280836773
0.6717288189928883,-8.599936902034688,-12.28137968758658,1.620653859804201
1.7671039435998759,5.98921805220234,1.8958452784719677,-0.7151721577347753
1.769684708507656,20.597429652211126,19.34968531263503,-3.25706529273705
0.9074750648371266,31.097406540855854,35.2801430452248,-4.89382852642303
-0.430888261450693,34.011370282437746,43.9217778476216,-5.142821905031171
-1.9275796363176294,28.006259852548453,42.19026970170822,-3.9480928252146796
-3.1216729972065402,16.1265408036736,32.8865777783786,-1.5233931400636298
-3.321443628618992,5.775139430981204,24.50778785842977,1.7083078431645449
-1.9673680924462016,4.453214349917056,25.99835987099657,5.254933836636129
0.9141287792335677,13.971766656624808,39.06711655173686,8.565680328782738
4.59187589353975,28.14288305117184,54.467237725728396,10.843671159994132
7.881049189378269,36.32791241623789,57.16511919685002,11.198056904084199
9.67004975743816,30.953099337629784,38.220477758119614,9.360923678453302
9.592136376425882,14.113895937888827,4.026005922001813,6.106238037120889
8.336322702671158,-2.4156469426454468,-26.287573411412854,2.5806324745989935
7.011022640647604,-5.925122859424944,-34.983919440167945,-0.7002977378332134
5.919700304293462,5.663963338424804,-19.910775728645664,-3.7953947851420278
4.11835996158138,20.500032400841317,4.023270528435526,-6.350568458209031
0.539121158286938,22.632414541282387,17.511235610830397,-7.264148352986511
-4.3604559176540905,6.453088274489369,12.030182476173525,-5.672531887429033
-8.252943442992782,-18.196517042067153,-5.626524867521177,-2.0109062047393094
-8.433795961388915,-34.78941594216588,-21.841126450870444,2.172933751119524
-3.8745029943715723,-33.75012273698335,-28.387622422427736,5.335404689771546
3.8256951508286825,-18.786933701000077,-27.31230463479866,6.799953664505996
11.219960756845579,-2.1547134473974636,-25.768860034007584,6.865138269731541
14.963908329190236,5.332937880090937,-27.69653425607413,6.373128141781061
13.73798864405269,1.2846770677267287,-30.946246008964597,5.960748907569905
8.924481673509472,-8.39612103782325,-31.376940530251407,5.375131772770299
3.544424309437715,-15.155026567331912,-27.920476377495003,3.618114962179576
0.2389312112640946,-14.070283754320405,-23.043743918737935,0.11341466176724765
-0.16473540658384053,-6.443109263557375,-19.606709674137427,-4.258984758692018
1.385647837971318,2.2542089351775987,-18.637070515888762,-7.560974313230038
3.225276692414278,6.713120706493947,-19.462733088679514,-8.288263922246234
4.042210079175855,5.299548460484522,-20.1046518214034,-6.388677098116475
3.4096986896555994,1.0021522919525816,-17.122627303972408,-3.0669879612128335
1.7243743730006074,-0.5694782680778308,-6.886707423710303,-0.04344903862272597
-0.355800200524294,4.470285562033187,10.921287339834437,1.1060833575137567
-2.577454069350148,14.092147819111881,30.592437815094833,-0.30961525478394397
-5.142699590291041,20.399224491944313,42.3212602036724,-3.371447905089535
-7.940997032059498,15.598992461877566,38.70987882275246,-5.733447146648599
-9.89180795962168,-0.5313904161709735,21.023441261273696,-5.106818156133841
-9.502602474351953,-19.100004579288345,-0.358741011730527,-0.9518176510723279
-6.358485139517133,-28.671304955667498,-12.507424599615035,5.032148312250447
-1.948361037459226,-23.889769231002074,-8.823557571435341,9.808672530128975
1.249628195809819,-8.460823176613692,6.720119068530379,10.575288715812592
1.7074372860911955,8.932504201891074,23.28569275483638,6.397981854935832
0.057025442906354765,21.047573443034867,31.649943766062208,-0.7776507968716112
-1.5154253888557752,25.798810544660824,30.506357484073938,-6.861615848965231
-1.2203668713617875,25.54268193371438,25.695032220865254,-8.327490909223938
0.6612014469690192,23.315082235823073,23.671000644160845,-4.897143418016008
1.9273345223292977,19.54112574155926,25.599340771741083,0.400794844522834
0.5218717874935436,12.749650284321955,27.58855399473695,3.8780198498419476
-3.272898580083663,3.7816475282544872,26.18462386110279,3.8787449503723694
-6.736947403664111,-2.0207773512170233,22.731860383834743,1.2975859470976876
-6.991885616014642,1.0922047549624743,21.61936849489576,-1.7051682045138536
-3.441076489458013,12.522949549661062,24.35136705899348,-3.19058246915016
2.0298850977889704,24.12025159461719,26.151074291789868,-2.3695063167089163
7.01528947153977,26.978182238972064,19.362949399157316,0.06060345971309654
10.423691869927202,19.41613768849421,1.0580889479085982,2.390087319305126
12.461360151468025,8.084297596243614,-22.293373595333453,3.1265994808488227
13.357031297633247,1.6012889670494495,-38.34754132248388,1.987792322373696
12.593400034952653,2.9566857292114075,-38.73708785188556,-0.2384369600838818
9.47235636304597,7.059025468136369,-26.730756829728058,-2.4767620162849617
4.311875667271843,5.275575650739474,-14.91894546430473,-3.7374974792142925
-1.0148785909853137,-6.4562726255655765,-14.192167489270178,-3.1632845994445895
-3.9557321135456696,-22.67761495016517,-24.132115508772063,-0.5865846697294462
-3.1451369129787974,-31.750516513273897,-33.827095929656586,2.680843543926823
0.28160137687008013,-25.559704610709208,-32.05054227895879,4.21575128754185
3.3719951432380295,-7.097325341326838,-17.489403622214663,2.307263157529926
3.7174259692836173,11.06447784356209,-0.6530168388293024,-2.448614622597832
1.322327894883769,15.942687910332245,3.7036172324580363,-7.456149638346535
-1.8308233670037253,3.1386799784858006,-11.910790907923992,-9.998351707513294
-3.91535278990722,-20.627100417186007,-40.539834386062005,-9.023215514244175
-4.810572122861278,-41.939191641745126,-63.87376794668087,-5.706648190559156
-5.728365268319374,-48.70831038744067,-64.58461577910055,-2.692988806701278
-7.718984608035616,-37.47763227355838,-39.19961725477664,-2.412874293646014
-10.652162163695058,-15.689002788605682,-1.2208874219442134,-5.36776110916475
-13.327110547924478,3.5952710224968816,28.617490315068494,-9.728344043836726
-14.283667731684018,11.660239440930347,37.596380556293354,-12.824083262447475
-12.668685018241046,10.753089376436218,29.66518184564587,-13.246222928568232
-8.730296580602657,11.083322260623659,20.61981821960932,-11.586128507424796
-3.704939601237729,20.68654770972007,23.941774157451988,-9.387622804317896
0.8132027644233949,37.381701463849126,39.17294362069134,-7.688053115645148
3.5648302800733855,49.713762908377745,52.53099839111516,-6.3845316861965715
4.028694809913815,45.705756109146925,49.081161409145004,-4.42606775372608
2.61904292111933,22.599927194176896,26.06241295708031,-0.4924569134796798
0.7300518118348537,-9.353164741083834,-3.8104360886757704,5.882020373242415
0.2254022204167031,-32.354414820535155,-21.65278763250431,13.308424882285475
2.1872978406592614,-33.0902064051926,-16.460287271673558,18.942217822575994
5.815388005027318,-12.744973364689141,7.423183749961294,20.548820366365316
8.773725563090576,13.67626061745608,34.65914869985505,18.425418649921106
9.008958787498706,28.816840177844636,50.46257630057553,15.146078575806486
6.470420850849799,25.45908342620931,49.68121510829441,13.392280840058582
3.210858064260595,9.746408021686497,37.14795533040382,14.030115551465958
1.85111004103869,-5.999035003826367,20.916057676894106,15.888137468220709
3.6098136189796404,-13.390195837196114,5.303382673554749,16.835594491418572
7.232493027062024,-12.996870173313235,-10.408508921536715,15.110708422388797
9.629094560828932,-11.661252033521526,-27.64055510078855,10.276577725346781
8.044970087166384,-15.255515122657474,-43.92636566153788,3.3980212082233745
2.2834426313715177,-22.986211930550123,-53.26704923788875,-3.772578501333803
-4.958396624791403,-28.005878663350543,-50.97655804524679,-9.970672273207406
-10.095705207349347,-23.65712788965385,-37.72866851100824,-14.808270263273055
-11.219697575099916,-9.53664891711807,-19.1646168200393,-18.1912479021212
-8.997716314565197,7.861696331316505,-2.7604103130042703,-19.847279621282752
-5.54260924628415,19.698407906192703,4.825670687179616,-19.658569477522274
-2.70922328185519,20.36311533034464,-0.132068558075613,-18.090089263179923
-1.1963444977924447,10.663589098017384,-15.731450829286876,-15.905815930241795
-0.6599648883067518,-2.5093042300695885,-33.36123740637512,-13.637521835656711
-0.3920759018688833,-10.158826067848388,-41.84943636894582,-11.629383904863843
-0.047406474904208455,-7.322499658855382,-35.430941316492664,-10.309229363497954
0.20781772363252968,3.0931298256173303,-18.421937565265537,-9.779024318841936
0.4729342848599511,13.197905185768779,-1.3990483384148615,-9.013814344786438
2.0433275010048786,18.052953327458926,8.00408181718744,-5.995751794111045
6.993312713790345,20.716748817303102,11.118293058952435,0.7899057383596357
16.10201343583216,28.63619556080174,15.670406217369779,10.685941435585033
26.977342262945317,44.970931109856004,27.38713005766419,20.46622888911839
34.627481451473535,63.96330311840007,43.72727307913207,25.665412654523653
34.51252619444693,74.70735696751423,55.41679675235204,23.128841050386242
25.653564059796093,69.03330755412281,54.198495978487664,13.489747086591198
11.293701314571871,46.61070592751606,39.768386953823146,1.6142114001814785
-3.247068870833329,14.544923977374548,19.987365418567514,-6.183713484407633
-13.725058451786644,-16.868567436964764,4.589788587419483,-6.565138858905176
-18.85523182705774,-39.341137918719,-1.978983140112773,-1.4402426730038407
-19.870436396879636,-49.98080558851127,-2.686704849827216,4.101882934872048
-18.60409108566354,-50.91923887732699,-3.7024044041981354,6.173246117586849
-16.049627372805944,-45.953076081181415,-7.963061927072528,4.664734115512961
-12.567998261004675,-37.70966061570693,-12.313450896936121,2.2199364547674056
-8.905238633343899,-27.685183687164695,-10.675367014424019,1.3972515477354268
-6.297019277133351,-17.673153205266193,-0.4249333913961077,2.7493120472170065
-5.382326047634478,-10.035549697769794,13.582948645875629,4.8707059105599
-5.457979834345695,-6.75162719524565,21.208646441014515,5.7849404574831
-5.190070079871798,-8.486358870436822,14.56217822211246,4.5072389329626565
-3.9043986136589552,-13.726837570375507,-4.758755046275845,1.6748312359065507
-1.9426644083587692,-18.203378534763093,-25.415003310351484,-1.266720391171153
-0.034616715988669985,-16.645314901749874,-34.6434992428104,-3.518574792333704
1.1879812157205767,-7.418358024224376,-28.51531808020743,-5.441663766990436
1.1205449004783508,4.386603665323883,-14.522447146893603,-7.646206463868505
-0.7336315571480784,10.499700757494166,-3.8102394157246566,-9.967270302678694
-4.136401231361631,7.585297370012493,-0.7081377220716487,-11.621836970895732
-7.648264670621442,1.373959524911281,0.25175516172237666,-12.086759395727286
-9.139133649215493,1.670027480499549,7.401844090280067,-11.397616046387206
-7.099082281738454,12.8405448043436,22.177120426911376,-9.727510205536026
-1.7968137021529473,29.02067085772256,35.82119049466784,-7.204449255245998
4.574488427724097,38.3898289868025,35.83736401180055,-4.291842436004453
9.025434149339977,32.72855270611499,16.991348497437798,-1.9741334020335743
9.613048007936818,14.467268176893688,-12.517396592396697,-1.2466882050164565
6.687192609142434,-4.580189428710959,-35.62899717863952,-2.3828225576368216
2.424494256034757,-12.49115753748395,-38.844720335976625,-4.5814411837389
-0.9706631699478335,-7.34737863176782,-22.599455540541644,-6.111926947173198
-2.6663067931991136,1.085709547395491,-0.8569562555937812,-5.039956415972612
-3.0328263885012503,0.6830153784045516,10.031362053945594,-0.6018989813916171
-2.61534255587989,-11.111265983009122,4.124239588036781,5.599738535071264
-1.7074218944181596,-24.732144089941464,-10.367624089403837,10.077771976660383
-0.7285116313828532,-28.01290789323688,-19.525299097411153,9.828503575311155
-0.3531863913612732,-17.79105531518297,-16.56501511031811,4.605805943590974
-0.9135432618787384,-1.9722070812380312,-7.0160521043674455,-3.0108067241003895
-1.9177808553554143,8.73102747681793,-1.6597141344107313,-9.560295709324691
-2.470870284466331,9.95108844192272,-5.065137663694196,-12.685139082164259
-2.1307935738056942,5.356287077135726,-11.649367613665369,-11.856631544544157
-1.23679041593191,1.2756273609078164,-12.479234561333389,-8.084744599247065
-0.5139677272451915,0.7025863718075241,-4.603376557801696,-3.2273133441013058
-0.4371389815155719,2.093112730021545,6.868058089557018,0.8772145678870548
-0.7487384452983322,3.1769794095390256,14.944842908991644,3.157013971590434
-0.39588145191141094,5.195241802159821,17.733093508528576,3.4868498211494114
1.8086301190324225,12.31520146203289,19.093820981563795,2.403856520366463
6.029232483689437,26.005797662898622,23.172914373278715,0.925704615300396
10.85240588741061,40.624638333429786,29.03785509592845,0.46401985711380855
14.178229962763831,46.342599050105086,30.902235836083552,2.2146581716165428
14.857955559065669,37.52278474779048,23.56631681592106,6.1331552645014185
13.482572006599803,18.22488986404259,7.928133232925594,10.675329705094311
11.711779839431049,-0.33669708407496,-8.256796316820717,13.892057786451234
10.98785950148903,-7.4729473477028385,-15.169486454438237,14.767496231409925
11.622634085131025,0.24740671621374713,-8.06412166100745,13.441131054709084
12.529486385161055,16.62408231321859,8.319283245786114,10.546971639854801
11.682170544021739,28.730545757544483,21.974543938121748,6.84182337127467
7.471497605176928,24.854362117294095,21.941933561653222,3.30981682482525
0.39574980379078734,3.740359967709008,6.821844503300303,0.9456415329245541
-6.4640476235612745,-22.45657109680648,-13.623930834824838,0.10737163298750516
-9.197154010725745,-36.1394904803853,-25.667804133205795,0.3302520395055269
-5.998019012487448,-27.983960102530407,-22.075783374299153,0.9584768406996088
1.108310504335806,-4.873423357530744,-7.492825320360187,1.7583584295922563
7.241340147063165,14.773454409241392,5.401511643731263,2.7877762474197434
7.720932802441957,14.326911381031447,5.678951783921918,3.920880203206608
1.175992270017969,-9.394063775039653,-8.042645020053799,4.739477914477343
-9.345920295805284,-44.239822429868255,-27.790633635008522,4.783878628646435
-18.2004978737489,-71.41612213277294,-43.37683443619918,3.785101758390613
-20.873006613744156,-78.16109546194933,-49.595745910428846,1.8244325964643828
-16.854332485304354,-64.82097181408601,-47.51807137991193,-0.5726574953862767
-9.32917476462065,-41.22320125321528,-40.33969426192299,-2.688706329255991
-2.184063081165546,-16.829482592425013,-29.166425956859047,-4.18865505537842
2.6932841706902138,5.3619728747815145,-12.892218815943219,-5.30269100929212
5.587758977547279,26.326256938783228,8.616609720142536,-6.2268939137200645
7.282289595416655,45.084328628311184,31.963633581790646,-6.600279902266617
7.774357018628291,57.29179209185674,51.03036307934129,-6.06991399639033
6.487462297618783,59.29054165734437,60.27637002879335,-5.350955467066724
3.266295765747994,51.76637872862417,57.46241096296555,-6.111373271235421
-1.030425204998352,38.87547366584733,44.02576772133315,-9.335459695892645
-4.8817404122371615,24.858283200977464,24.189495126813117,-13.889470564168224
-7.180023121857931,12.120295244144296,4.486824058721195,-16.984488644854295
-8.175943714573137,1.7694735460534037,-6.899839146955804,-16.222153021185363
-9.229187573219336,-4.971892309118787,-3.1099721468787607,-11.484394039976566
-11.252540930745909,-6.198453762566022,16.161725181894305,-5.296324969681135
-13.36096374128726,-0.7010269103905358,41.17379087739668,-1.3949180890954096
-13.424648298917091,9.213030670372401,55.37428499041069,-2.199763640510106
-10.160629823137644,16.860143930302982,45.8222365032795,-6.798134141519156
-4.490950202692015,15.52596539253001,13.987130963684072,-11.279407562886501
1.2466478561730334,5.202082797750159,-22.86429139771357,-11.6235884301993
5.134128173462797,-6.097673085639799,-43.077798726479685,-6.834596073611722
6.596185390771646,-9.42748696105735,-36.52370284787481,0.441449689986051
6.001943765803399,-3.2363972532054497,-11.48467842787889,6.102665054532676
4.009945934374338,6.112485605477078,13.204173402204216,7.378594529253906
1.396284084047332,11.360489644055495,23.095200480118752,4.183072252023806
-0.9070255257580334,10.52558535993437,17.076621530205973,-1.2256701843053448
-1.9888009936520454,6.598166043540327,4.28737636232734,-5.626559889002846
-1.3069973749994561,3.174441776387205,-5.878817772672037,-6.649381649097503
1.0235225987643781,1.2834775229964261,-10.941110808524169,-4.102327497146246
4.186885121938775,-0.6221230828496377,-14.570155930174778,0.29816560558844996
7.060583305272804,-4.753297366725632,-20.825046058974916,4.674873592345029
8.945078180975264,-11.952042029353633,-30.00116582736869,8.452485768146927
9.910869640233974,-21.086229655700986,-39.430868886449794,12.104916791911736
10.18772163456789,-30.520164328394902,-46.780352031463096,15.848790402821052
9.293415198174543,-39.92865548462014,-51.52789924761602,18.975767523965295
6.319969785482241,-49.52333122943402,-53.59219136876275,20.331680184391526
1.4673657268003626,-56.837919381728234,-51.62406234729296,19.091366842736615
-3.0147013121181594,-55.48652772121855,-43.25638057999188,15.17907823151535
-4.07637600365955,-39.31464402420506,-27.11691324333762,9.426025519920573
-0.4671716942241266,-9.040620995253398,-4.915556901677824,3.4288073796935636
5.828313016526874,25.475677538404668,18.08713228850443,-1.1989717142330023
10.786726458188673,50.48044057426068,35.16535938307473,-3.7877470512661793
11.238257388592526,57.027532579291,41.92353637442411,-4.7239730398309705
7.179527689778168,46.258800769013995,38.9675353574469,-4.53891576324956
1.7277531212844994,27.783529361449887,31.000117570433808,-3.248415761604616
-1.3814180561305094,12.836494610688199,23.072749627593783,-0.9298143442513587
-0.9074274125030188,7.037826836515016,17.338013493607306,1.2928264536664238
0.8726565680770925,7.870354242734607,12.846702827494706,1.3978483565037392
0.3921883033832835,8.82574080531359,7.916275784706221,-2.095762829127341
-3.6766110825851808,6.372589079689168,2.487407233936099,-8.729852091431255
-9.007733472933083,2.8195437568056816,-1.6808895037867198,-15.91742344487046
-11.64032315908256,2.5410030564999606,-2.814621102272537,-20.0860239782244
-9.350200399362443,6.542872207125174,-0.81707325512927,-18.617042579705657
-3.325098568322872,11.52022849922723,2.8229278128608026,-11.619574534078637
2.889617067074076,13.391579982758284,6.444239115567522,-2.208432529599446
5.910506672699637,10.716005475252356,9.438503858756235,5.372280777116938
4.634301148447925,5.435621218359713,12.648161495379297,8.523783566033435
0.6995325908730586,1.7138371077774919,17.967465966263255,7.600801747495587
-2.9997530489905055,3.380720744628032,26.761339338806568,4.805940145561764
-4.7273371146304894,10.129208994092084,37.259292808381375,2.140204265563071
-5.184555827644417,15.418286642974481,43.190479758932184,0.3785898335715611
-6.339661168848757,10.185574558375725,36.477328599365066,-0.6072410788805233
-8.913042275621537,-8.76919894960517,13.601750316636036,-1.1871099181000775
-11.133117592292876,-33.250410632694766,-19.035956451921617,-1.647794138542102
-10.078419869968908,-47.37329708370772,-46.28930223999714,-2.1152265734133744
-4.305425656488978,-38.711037714108045,-53.25348248090076,-2.607398167949117
4.592823430412744,-8.369166102451585,-36.51746586338531,-3.2321471131525263
12.682816794255574,28.03531755532441,-8.206766660936525,-4.2327736939933125
16.082829715632887,50.1544772258578,12.440993371782389,-5.581931348720632
13.506700541410996,47.22627793974313,14.265848422517498,-6.5625677060406264
7.261467836165169,26.107580041355703,2.8493389543612007,-6.103744494090121
1.7420326113320577,5.614246270975932,-5.621614349658163,-3.7377622039959535
0.2544198471785887,0.940758544413783,0.3078858243895591,-0.14202119299637225
2.6630115343044705,11.57655632352885,17.004507563238835,3.268194911478017
5.8906974848921925,23.435387415695043,29.26278105681746,5.123647264450981
6.706943878760139,22.34190449549451,23.597161038070375,4.6332348957396245
4.226975848031858,5.825551098500455,-0.5728818214116334,1.9497524292365072
0.210312975040491,-16.299019877261454,-30.399533481291268,-1.5656677420597327
-2.5622021948422784,-30.60965200770336,-48.851375462101856,-3.733251498804719
-2.3014181961777362,-29.606695511482787,-46.047308163987466,-2.8315113887147425
0.6510126286409992,-16.043268528162017,-25.072656677190672,1.2049731948018596
4.096292089282458,-0.8043259123591913,0.5697871590962678,6.824813910187103
5.505517622956678,4.202985361227978,15.655952136249349,11.953525987697464
3.7901966653102477,-5.541021374049098,12.91347995113547,14.96996298110435
-0.09075080940464168,-23.268675590714427,-2.09238819617749,15.01702763826182
-4.147618150020597,-35.45460848825437,-14.580977839264627,12.068459449476052
-6.885333486697953,-31.96127404767671,-11.339238016380369,7.031355851280459
-7.893731271025584,-13.734474283465113,8.556674563846032,1.560148295792441
-7.348719853886627,7.991797791558332,31.836823201954992,-2.580397087656862
-5.438417989206006,20.027033205130564,40.736462067698625,-4.233521984301261
-2.4377071471786635,16.71029562845126,27.27796300222708,-3.3408939739436736
0.860020793275148,3.6012952229220065,0.14216773331119226,-1.1585074378875384
3.049033786674417,-7.584581309047454,-22.249811011080254,0.11396668958056987
2.695731107048918,-8.934412712665022,-26.592695080625827,-1.348644675820097
-0.6105453405921679,-2.335984790139863,-14.254926081726882,-5.438429854218667
-5.481925283227576,4.340853936282698,2.5234519648773825,-9.967444629892368
-9.189039813491341,6.6648888168697304,13.008010302571885,-12.49752739396642
-9.511053781636981,8.11794870500397,16.540087902770935,-12.44918362779018
-6.571233607775515,14.801265898861287,19.80862967400391,-11.32620466610464
-2.7711559277127047,26.87547792631404,26.97150096448468,-10.976690074694423
-0.6897456241168405,36.47363897947328,33.342489770970786,-11.788124050149024
-0.9900631860298283,34.090663146160516,29.1712485950553,-12.385950219999417
-2.2718314487463194,16.972131964835594,9.888509423445624,-10.782627224158796
-2.6382206933094756,-7.752219577385022,-17.333158737226857,-6.012065449571863
-1.2781051923633888,-27.430968519896407,-37.74140600705135,0.756989157139605
1.074877072199472,-32.63633689294489,-40.715653027673966,6.524919190287294
2.781610842404637,-23.91898343416107,-28.185460915430347,8.428393304382169
2.5584358368699553,-10.811197045463334,-11.962360786138985,6.058510142750449
0.6622386543593228,-3.4005385745156684,-3.250749973106866,1.917010043154595
-1.0230897467157531,-4.168409526301149,-4.7622640973037775,-0.6840002785875767
-0.44382216740262564,-7.8168321261300235,-11.665624365816113,-0.2943976802335833
2.8226520500263583,-8.10928570611262,-17.9465052975915,2.0002963341744295
7.31333326159006,-3.493128157169521,-20.80050728420843,4.187740551976178
11.196263569766357,3.7008994031800686,-20.174803774004634,5.204693401689221
13.678370279517376,11.183662136488165,-16.438817755102356,5.304749996708419
14.752473625619738,17.943445161735067,-9.827542493853498,5.073934787639446
14.057784518511726,22.412812718501378,-1.7316019709051034,4.462906983724729
10.730280542187291,21.66134924455671,4.69778066979596,2.862773460601686
4.627434764737754,13.495208080496552,6.153789395274943,0.1503426496564943
-2.5804838648978667,-0.9675178139699957,1.750941688575778,-2.3716538637593847
-7.900442057158464,-17.022442734989642,-5.9024208822389115,-2.421609873684213
-8.928218854833139,-28.568156819983443,-12.200761901679924,1.3143007668231648
-5.703372065456313,-31.30671815331941,-13.34188048704999,7.45363977335514
-0.9421323612017771,-25.171151946784377,-8.223760381736641,12.43134126445931
1.8138635597663435,-14.05855997607081,1.7468556873649586,13.120656536887607
0.8426837418025829,-2.5051943423292076,14.221430881732953,9.105382143850997
-2.594279521308646,7.641223583524106,27.014589729003447,2.5721192757134883
-5.638947133296587,16.867143626774208,37.82350189283666,-3.6055365971022035
-6.301427073285091,24.94949396176738,43.875947432210815,-7.543808660165669
-4.559640507970199,30.120030682621465,43.36566240419819,-8.76983678619202
-1.4736110130223965,31.937995390416006,37.844342145832435,-7.868708957728047
2.072024905939556,33.147113582236145,32.14295308821762,-5.949346234196631
5.517099483151934,36.58312840290937,30.294592248898038,-4.051341047827754
8.069720099927347,40.57134734600685,30.96350769031603,-2.7603318469531035
8.689078105263047,39.311643323881746,27.714836339769874,-2.3824896043702366
6.796678320483646,28.65920858893963,15.034343719185866,-3.2888188628115596
2.8261825998355397,10.885003533214794,-5.256865775396865,-5.6223996306797925
-1.9509154815162155,-6.728845291314531,-23.879960379802746,-8.53286489937801
-6.006199756278348,-17.809252393895015,-31.44414806032621,-10.116532800033424
-8.067508467047618,-21.62640979021936,-26.86994391778631,-8.54019013630902
-7.456254824226164,-22.58837136053756,-18.41451498414748,-3.3283735149922165
-4.259147063193614,-25.007640876868084,-15.50176113450929,4.29947628653597
0.7050683767529755,-27.82885084196872,-19.186641767620753,11.955892139337635
6.034920492948051,-24.88550952203932,-21.185847617594938,16.900442486979603
9.937941627811519,-11.605732627727297,-12.762058671945042,17.11379442136595
10.739050595238618,8.214464360867233,5.581212463339052,12.534223100896737
7.900743014513134,23.572057707075277,23.378334338243665,5.445678774945885
2.838547651076986,25.42090070596154,29.005312046310117,-0.8457907209330392
-1.6692768912823621,14.696669821526378,19.517905758270476,-4.170726498249982
-3.469042136560807,1.0093548496157423,2.8338542224969983,-4.574877909942143
-2.6672068939084554,-6.000304275197934,-8.929739889742379,-3.63658666817958
-1.2894599174156374,-3.6733146829629693,-8.699538007450673,-3.11656586137116
-1.3985642357345562,3.708282935587175,1.191049758239631,-4.101100112979651
-3.561332871164026,9.619284398108407,11.916514889181988,-6.730826162517441
-6.836606291141521,9.48271602925035,14.68786030034999,-10.25713133223091
-9.855798005185699,2.0734726978584246,5.647959984800002,-13.48683282123011
-11.89892918713747,-11.082729280208982,-12.940477641715072,-15.43720621081408
-13.175057769763077,-26.875661712706762,-34.096000474437965,-15.54841167359253
-14.09034753631366,-41.35803401277182,-49.01265528950579,-13.340551388166855
-14.105048294374784,-49.967858161250945,-51.27271532538717,-8.397486537039
-11.533685234566379,-48.415363455048556,-40.853971778567285,-1.1905825337633569
-5.072407091271401,-35.298767098035086,-24.6449754980135,6.257484588114352
4.178620179705778,-14.777924693912246,-12.002385504430626,11.160594475232259
12.55847647429764,4.393878927608994,-8.374354447329074,11.822748637602805
16.245361087164632,14.388527629124559,-11.966041015437819,8.799031740563263
14.13112592916555,13.933304420312233,-15.703804231335042,4.390756674908148
8.559891121018943,8.620712415265904,-12.642016604961073,1.1844182931799923
3.49731064975735,5.679465143823911,-0.998688015744682,0.793727486763233
1.8452131300357102,8.18616531959242,14.39291980362425,3.27752325538377
3.774197521424354,13.283252392082856,25.223931927111327,7.272192309520216
6.879274987218943,14.975532367292459,25.551788157948966,10.812459730164338
7.967579334083708,9.268106008139405,16.40389976777481,12.402492729659484
5.424756854626508,-1.6703831328170184,5.6154522613248155,11.553588381322411
0.4696051662796186,-9.91551407447303,2.465759104421582,8.59569537350547
-3.807480925907992,-7.760283752301952,10.767603091941885,4.401851407532105
-4.84162751075932,5.402935467047411,25.950949494139838,0.35237238416272576
-2.3709410240128856,22.184046159246833,38.76112838704382,-2.0631998988823064
1.6436829031206124,33.28777237438795,42.22933860353373,-2.323176562949952
4.460506822821394,34.09809846533506,35.63079642837953,-1.5876631526182838
4.2186353327515915,25.90996565187152,22.744489320186606,-1.8557336398675195
1.0768012650676524,13.081310050856722,7.683815863601362,-4.1253043482304275
-2.7289908413139545,0.5974310883693374,-6.987410096433739,-7.441076392953589
-4.3274919237915555,-7.006509582247128,-19.019596041822886,-9.738618234373178
-2.4479662977724486,-7.189170322221564,-25.14097876831051,-9.490473541700172
1.5142141168193384,-1.0344166243654174,-22.32648908558114,-6.695313282571407
4.812328530390322,7.359720483424284,-10.97484343625375,-2.737213836607075
5.754577601552413,13.669103779980338,3.4285742649807647,0.5117765158700579
4.755407499210088,15.606434228065385,12.841385365708051,1.7682255033630043
3.3028395397231787,13.279385787449838,12.116955307341398,0.9249126817101427
2.357488894620016,8.611744953584035,2.7010020434232187,-1.3087964641749479
1.7719564196597841,4.3712957592688655,-8.90091173025347,-4.251514558140931
0.8133681756864742,2.353638419245484,-16.328596251214208,-7.474861376168933
-1.0047313028164533,1.7390680682807165,-17.414926895546117,-10.193386492966118
-3.386976482613933,-0.08568662314668521,-14.151257199989256,-11.02921645245918
-5.342527526441891,-4.407619764473592,-9.824275137664449,-9.055789540577885
-5.957211414691888,-9.254126643139932,-6.329590185207961,-5.107784427343938
-5.261892995350166,-10.987842416529388,-3.313292230095025,-1.5873398422764236
-4.2565606745145,-7.429582481113743,1.0372239896435669,-0.68620313223232
-3.988504446564332,0.7433020072768388,8.301043603652284,-2.795685228053293
-4.708012848875425,10.533149550801776,17.914882184703234,-6.458816814466943
-5.890837968271461,17.485758281863454,26.147616000989142,-9.441894632351092
-6.683588532661239,17.15580496650513,27.46238654074516,-9.812632364529165
-6.042699716964233,8.273037515971815,18.541133183272237,-6.592021869297159
-2.8394914661469075,-4.479952622991351,2.4010451623693854,-0.04867456624860697
3.369594043023973,-12.23976920541585,-11.530926957322906,8.423195354813123
11.299252321041283,-8.465600694806593,-13.071884398607482,16.81557317283253
17.970215459490415,5.319228993053807,0.7141988573010428,23.065281818900463
20.325872412939315,19.78640069047968,21.52093638551922,25.528173650560344
17.212758688910522,23.708591084772056,33.9767299183492,23.619780151069143
10.087999495695838,11.211715304598517,26.19525175337122,18.405632434544703
2.045887619376877,-13.706411016279953,-0.5917319719686523,12.209616267437076
-3.9585307564145054,-38.14798345710537,-31.26379109165499,7.004696171279439
-6.545505660669735,-47.61053806852477,-46.76766077905709,3.0374803025386625
-6.259949930247005,-35.80474972941783,-37.57012533544337,-0.7181184346497018
-4.712695573085339,-9.209898818425017,-9.74339989700707,-4.7814689830104316
-3.2326570419947664,17.961445873362514,20.722779444570705,-8.202253346527034
-2.2128364737987827,33.67067526039064,39.39926640754902,-9.480138507591484
-1.581441803913178,34.14336933757886,41.01925413383371,-8.178572589520051
-1.5195227730946363,22.93789857251064,29.061505746433888,-5.517416600534491
-2.4358299709168336,6.631939579629516,10.609229354053976,-3.5788436792390543
-4.441510290560689,-8.81336168160455,-8.003136523768099,-3.905173420862788
-7.21252812077019,-20.137462097677137,-22.34555923892888,-6.357460933019726
-10.260806407479132,-27.299699701299026,-29.427290388373795,-8.955235246068073
-12.897856176496662,-31.887150946826385,-28.210277734420654,-9.143045205660515
-13.942929446959115,-34.5426367486535,-21.234133221084114,-5.837052803911789
-12.116113879770127,-34.34584319001372,-14.66327698356642,-0.4504396641466
-7.234007657681141,-30.808075647171112,-14.750584221498892,4.250697986681695
-0.851447575380757,-25.248651543030512,-22.69859712722657,6.371051577581729
4.680666526529187,-19.11202511751012,-32.57782978966751,6.009036076087462
7.864556045404964,-11.699307677791847,-34.977774635084145,4.541281640957913
8.745912568523629,-1.252537004383872,-24.264630699702064,3.253591032478554
8.280989752661432,11.390691731177116,-4.037945934837334,2.5765887676613164
7.380916643658068,21.44499738968006,13.88590578365766,2.051939747992894
6.456596765930408,23.50178693605529,17.25074301893866,0.725832524756651
5.486193865161829,16.481948726068705,2.808566322386062,-2.0911313095121042
4.417554222959694,5.729118128851466,-19.901322684074373,-6.045313335742904
3.677812165605215,0.5770098927704139,-34.210888908445995,-9.75442063811562
4.198416552893983,8.579472907020186,-27.91711887246248,-11.793588362764618
6.5250639233939385,29.34882090297923,-2.288382204468657,-11.640254968725818
9.717011360652403,52.4861174879046,28.416314208037157,-9.657405297040254
11.421940175842208,63.036380905857555,46.70748180720341,-6.534797915512339
9.465835513025947,52.02689546443343,43.68763649825428,-3.119086705844537
3.650463670101485,23.797487401435646,24.338571821539297,-0.5458603847243452
-3.787317136852084,-6.381311500227702,3.002213757924211,0.12869985042326934
-9.374337464292758,-22.450313469837,-6.7733885014664335,-1.2202103163376363
-10.421561680341505,-17.573916497280834,-0.509607827670481,-3.4212241036468543
-6.6799649435000115,2.3163921272931782,15.74199731788472,-4.6276348542156205
-0.5751273055427344,22.784323673356525,30.610565085627304,-3.354089671716752
4.369380107339154,30.363399304414028,35.37681722530019,0.7453571009955273
5.924168646212111,21.658426118705293,29.52396762145515,6.511555279724227
4.384890495651956,5.23902056747566,20.100462117595754,11.508939804908115
1.6127557530704948,-6.157760927898941,15.23120437753842,13.193627385537244
-0.9250000297090472,-6.845169751992898,16.74167852239675,10.587774216976047
-3.0453078609343938,-2.576957003931073,17.989927200415167,5.063661759365219
-5.1234794103620205,-4.329996736416934,9.110497761880874,-0.6152533203237873
-7.057077862200931,-17.723901094913003,-13.936078099510024,-4.164617340382303
-8.157069314282948,-37.269700130979174,-43.407388604889775,-5.016585446602197
-7.799275209665043,-49.461154211959624,-62.3750051284695,-4.265419793277126
-5.981142596866261,-42.194525562351544,-55.575165663674255,-3.6703717370973434
-3.3906666046404337,-14.305952233437347,-21.331677968816653,-4.322755465640869
-1.074704306351749,21.657607052338115,24.964788750313986,-5.748050956882369
0.1423463662672886,46.75998112633925,59.58689357059258,-6.334525097909645
0.18442771844901037,48.59330633591467,65.4271012958115,-5.016943962879295
-0.2594617190306241,29.567591156603775,42.280635717916006,-2.5331622576315036
-0.26224164939439265,3.9223296614369794,5.601687238425914,-0.6741424468789617
0.7953278118790877,-13.110510333251032,-24.418750514563424,-0.3239508251179481
2.9845380465022027,-14.72807815321857,-35.320603631044854,-0.6935926485849866
5.679998440014506,-4.682897961660173,-28.096715865145352,-0.5423176892506211
7.530882171353828,7.080215365424152,-13.256515351121763,0.46877575960120876
7.164024263800648,11.393632325705312,-1.4646746105547153,2.0425420962315477
4.623245265135132,5.702777680712043,3.445020479305949,4.351272971804023
2.0772214835356677,-4.626129802007414,4.250977975217126,8.081066451832145
2.3663101982404426,-11.192361149706425,4.748041814058983,13.250898981707023
6.260097082727046,-10.356990369854541,4.813829923772621,18.42913190967921
11.176002883668813,-6.696965451530732,0.7296917954867366,21.370655951071893
12.915090046280739,-8.149122476499056,-9.770530338129797,20.398283486514547
8.937253295361428,-17.49645984559399,-22.76445001059834,15.389440224132318
0.32547048064594136,-29.021307862599915,-29.130124071883657,7.928902681155018
-8.955504559258305,-33.70632142531929,-21.841217404334472,0.6584243329588456
-14.666542117776075,-27.66379595179837,-3.5098417771889023,-3.997510186159551
-14.913551049994645,-15.888052400971988,13.602536215130353,-5.09964142650165
-11.167444152968626,-8.259501080455864,16.580928397836253,-3.568302397399843
-7.015380360859439,-11.20969861429802,2.5797405413584267,-1.469601420853757
-5.450311072080747,-21.700903661847423,-18.21712376867722,-0.9055358441920135
-6.751769485745509,-28.729260354762083,-30.11638330246615,-3.1059865439307695
-8.632457745218453,-21.825650261791782,-23.48587450495722,-7.773028306375591
-8.319491482140085,0.41602316635605735,-0.9684969870299489,-12.939604013061583
-4.650057286250253,29.337434941554587,25.703473103913417,-15.98560601372388
1.3167403043631745,53.02834663867506,44.28818688058145,-15.534828682491188
7.147743840540099,63.81968175532045,48.67935805650887,-12.509787944974985
10.514315168572509,60.4228846267194,39.70551369893659,-9.088384516654836
10.555029658553897,45.86256510491192,21.88788864384771,-6.672867422058442
8.416148929966415,25.619408578805498,0.4269700101036826,-5.11433577139759
6.386043405360853,6.823296513986549,-19.441474164502665,-3.7068974220963415
6.036637133401941,-3.9066275979463407,-32.25146417114276,-2.346537576375126
6.971016947192658,-4.212532433757819,-34.02557269049825,-1.52707266205793
7.40702803469112,1.912976779112266,-25.90007935384611,-1.6051507002291043
5.945336504048171,6.346604561060129,-15.616570416617414,-2.375348781342499
2.737456229667818,2.385754038048187,-12.91331467740652,-3.1934831727132975
-0.8062330650452674,-9.975101742829745,-20.968186247388612,-3.353167002048687
-3.107799677298921,-22.958749688219246,-32.08823324273502,-2.5793989852185994
-3.3673224681673037,-26.03125975188245,-33.395918713783054,-1.405642106232203
-2.0242928518100327,-14.407682024558234,-18.262620562076595,-0.918630888274914
-0.6233610570474839,5.894806777716481,7.2228507051328705,-1.8663846938962203
-0.9356902690859039,21.801863046804918,28.733389583075915,-4.016672266010281
-3.6919858136260024,23.123900215686852,34.671950322057064,-6.419171310701873
-7.891182940543618,9.933503026092673,24.160718205999707,-8.030651311689288
-11.30039120675022,-8.519223587679477,6.580763017834538,-7.90054453370611
-11.733792642472979,-20.966408569195217,-5.546740618515106,-5.184383882927407
-8.242173530080924,-20.858112900615737,-4.598514201430773,0.28489428328066946
-1.7050041692973867,-9.086562765821803,8.066703534765448,7.2431002908393225
5.361119997769802,6.896010614156736,23.514263310157336,13.274730572488528
9.916629758486243,16.670490693913944,30.626084616749615,16.299777915022503
10.135386574992797,12.642280738529228,22.51697762999938,15.900856674267773
6.6633317388655415,-4.5476574921750395,0.8745895722178757,13.314034482416314
2.283768768723238,-25.304038100243904,-24.11535243412923,10.408443670851584
0.08882106900128361,-36.56090342196774,-38.714791659325336,8.646010079553355
1.4689232006456299,-29.86942398898894,-33.23046289805929,8.425945900303663
5.228208419159774,-6.753817445095017,-8.134273636136077,8.837537280638095
8.290710109052949,21.680952651920048,25.181240093941604,8.101980064950729
7.669020664840263,40.93808901306126,50.33129247299353,4.756220006230212
2.6473972399518804,42.30897238987964,55.746125485620595,-1.237389089873197
-4.432252950949965,28.996970271027966,42.02843761831661,-8.384805246739766
-9.761283359266352,13.299027398524254,21.027918385008373,-14.454821093582629
-10.931022842152098,6.064051296468493,6.638798350591357,-17.39360166117708
-8.50028199101817,7.867705227299459,4.352119069301081,-16.050242270103645
-4.902002374123276,10.226559656183813,8.034866614589772,-10.796638052223823
-2.0781042844619564,4.772586099435523,6.335915172369225,-3.6142662792470936
-0.27104848073804005,-9.174598483035528,-6.935456448042615,2.937900904711702
1.2824313668688536,-24.766289531767274,-27.04087559519942,7.302268346307208
3.024112646381044,-33.407798140971174,-41.63280870242719,9.52786923113198
4.492702841857964,-30.68543223720505,-40.308338397546315,10.380974988317174
4.7005402311668085,-18.958703775947797,-22.657596241632543,10.21390419284061
2.954993170527356,-5.60379301850551,1.5717782061788215,8.890119869547586
-0.44078034843445,2.1277097674379957,19.879638208234528,6.463589871902575
-4.140813376616901,2.034537392639007,25.460874647801344,3.495402177462222
-6.556754782918512,-2.4832954977586827,20.099700219156567,0.745676517973908
-6.841052683684935,-6.317199556818919,10.460722789020398,-1.1873581742884354
-5.057681613760845,-6.522164987597406,2.1064860004796873,-2.02889506944001
-1.5532293141180284,-2.7219031702782375,-3.631521530235784,-1.9735828822691903
3.3692300941212223,4.513485221313218,-8.168842818768155,-1.684723370865546
8.90374077108436,14.113349155395667,-12.067451591676576,-1.8514257807575625
13.239689144899259,23.6034677670388,-13.537403453303442,-2.656839722738017
14.244439130165954,29.176599152114765,-10.793295737268268,-3.839961196855549
11.025512191337677,27.62686055148952,-5.457550228023955,-5.201673009748174
4.90226815534529,18.594073766872146,-2.521712787630405,-6.707513604824617
-1.1984443378370158,5.411187013998198,-5.980826405849697,-8.07694519267019
-4.567061983000667,-5.975012842086746,-14.265647111591619,-8.750847032688366
-4.511064502085506,-9.822627417257742,-20.233271889460163,-8.589486486840022
-2.8044873141681887,-4.080113810467465,-16.257845218915897,-8.325946948603647
-2.205074111522051,7.831918233030048,-0.5853321338366504,-8.898786935068365
-3.9728367475959745,18.85451732600884,19.821181846439362,-10.296020798716167
-6.538268801412395,22.62116321760845,32.455356828068595,-11.214697023145414
-6.755098056717143,16.835701655849252,27.128404698252915,-9.84108957369252
-2.7413699338358186,3.650030637096038,3.5259357433838603,-5.027931265351299
4.294288756703777,-11.9488398305702,-27.303201617415628,2.775254531478042
10.794453306247647,-24.094577586587075,-49.35419092862232,11.197074909360316
13.316683739396655,-28.161360391118823,-51.61682012319573,16.735490528896754
10.724862578470216,-22.917431486361114,-34.35773151991688,16.754841495274608
4.79894553424138,-11.131404126470517,-7.719229183133473,11.405578028964126
-0.9134507097364363,2.3529265803144597,15.35219630431981,3.6591272922759623
-3.3991782327591316,13.193132928542665,26.366873965543842,-2.7214781345695607
-2.2966700732168124,18.281881856050074,24.44231793095483,-5.441575874268118
-0.16693359796373583,15.307891105687219,14.713089973780699,-4.4567688068233435
-0.40868624619312854,3.725570577366986,4.222166162783642,-1.3491351591423175
-4.440339683561604,-13.140239153648787,-1.9099952630337962,1.7114548084638848
-10.579163025682407,-28.24981761480952,-2.2296631963565017,2.9701779256613845
-15.422339501660163,-34.61422619544301,1.7397861546962943,1.9519200220694792
-16.297147722861737,-29.590025190676634,7.471665556700467,-0.3270733227719598
-12.83815352972887,-16.196126439848094,12.789476953672791,-2.1859321546791164
-6.926544307170133,-1.234773981383168,15.80833661585179,-2.5116008756191546
-1.4034976450107188,8.22874226434138,14.79898555400919,-1.3541336295543136
1.6177610552604933,8.902774942252297,9.470802256930174,0.32431938677975614
1.9103360246210397,3.8827497396241846,2.5939958180724294,1.2500701003823542
0.9733697265682255,0.7567320327700535,-0.8249102096046538,0.5533281654431013
0.6233574847613024,5.108352365742784,2.606767270583587,-1.482608559292961
1.518914594619384,14.858637553579106,10.941197802799138,-3.2955129195421655
2.8626769351612773,21.37402613835761,17.084342436417852,-3.163194667997259
3.3553119332689763,16.75060908674538,13.550182805480539,-0.7742295010046227
2.4439620448489947,0.7182863176395298,-1.4195824628208589,2.4858451360355267
0.9342660899782746,-18.388003902528506,-21.118584032036125,4.945721581728926
0.5743345196978675,-28.814250732437046,-33.90007823104555,6.09338827016987
2.694919190074869,-23.152860246723247,-31.24252310274916,6.4529598757595785
6.683771416355211,-4.078247139794285,-14.509496680454886,6.380700367109368
9.760700581891077,16.103195263373866,5.140431611708062,5.462638961443667
8.898016385804409,23.293299572750517,14.185911437702224,3.1372741999469613
3.592837957797351,12.140765502710696,6.3827619944632445,-0.3378507163598633
-3.1743659605567034,-9.278453495618189,-12.311328682776232,-3.5801926014780165
-6.981195473897862,-25.16595799773362,-27.275199946337533,-4.675561672480849
-5.243432823144764,-23.383477811592922,-25.036449307154772,-2.3835770328036956
1.075127061855842,-3.2599476356757684,-2.6124398574786523,2.7026895685547565
8.371524621781989,24.929157523635027,30.02638260985017,8.070913001336717
12.802114576760982,46.59110058331536,55.87486499402634,10.79731093201235
12.498013883792492,51.05302443346387,61.27014854431334,9.600253250710065
8.510464925715317,37.8663880357523,44.423633278123866,5.563215538210051
4.016754795358048,17.772528586594493,16.933230959192713,0.9535134018374883
2.1318137865026356,6.13455421219469,-3.2454579459058976,-2.4980104963495675
3.773092973585396,11.999444955315552,-3.7442306741943563,-4.34592444615426
7.207932126719631,31.013301350624563,13.08960675192389,-5.147486383630027
9.478145594664245,48.09818473668368,30.925579481764927,-5.898396005160302
8.32946152959354,47.74691778117459,30.692351392259667,-7.4459552240771725
3.322130586267167,24.496245876913267,5.033604639733701,-9.842521846707102
-4.077092254704604,-12.863622954145393,-34.75844123541633,-12.122086988651374
-11.12732823335642,-45.91478393376624,-65.61693641818674,-13.005514370563583
-15.098643118463754,-58.12577534967742,-69.27910840283329,-12.001634069076124
-14.871784947237558,-46.11299512013444,-45.73655213409981,-9.795268814824164
-11.790055585795702,-21.639993993928726,-12.250557731892622,-7.695668855177401
-8.855723644509316,-1.9353641648819546,11.12927857191867,-6.884698863978051
-8.65435234771643,3.36756245423438,16.58606136887966,-7.892095178784623
-11.44694492343357,-2.635434845147445,11.333378368578785,-10.124253628945903
-14.737378675982244,-9.749985504820014,7.490140600676746,-11.713356120283564
-14.727597213603277,-9.996558190655012,9.998951524057963,-10.446091580006923
-8.990663123946343,-2.4368509724254626,13.92327147869597,-5.531309464768694
1.3601160083581727,8.453431700181381,12.251801465521277,1.4556759591270438
11.917318155994394,17.43684939766899,4.928179790826234,7.622427927850658
17.8939082750977,21.903620764179877,-0.7679855570554518,10.871470787483268
17.451954450497247,21.83651322528823,1.2772688471334137,11.150535666572
12.603278062077772,17.38672082837094,8.198456882741045,10.077182733639402
7.163526192885493,7.520778828714137,9.941416777259887,9.63646430949332
3.91574163852188,-7.945722242176533,-0.8568272861643611,10.870585696581067
3.262551584314057,-25.240272517883916,-21.01832857660094,13.140470714173976
3.7007065087000357,-37.32762973241349,-38.76854333758431,14.463407994403862
3.112043090615006,-39.26998599778814,-43.311817122640434,12.97698627712789
0.07472120684516179,-32.79159637092554,-33.066239071967686,8.46258316165179
-5.202680310017956,-24.584092982985098,-15.745999924761001,2.514298168484976
-10.868732706211018,-20.01645898576659,-1.2596105435111866,-2.7173615106380087
-14.610346942284451,-19.174616876560716,5.6267212931957005,-5.828524338475134
-15.218085673651544,-18.923577888750977,6.602160151112341,-6.474473484127093
-13.185243377317004,-17.565624003712912,5.182901470529879,-5.0343983093536355
-9.933253045083838,-16.522800068057993,2.046759745127771,-2.32501760038877
-6.566342691930292,-17.704499930400644,-4.395014077204963,0.6614471813871705
-3.2426296748848302,-19.86209271090675,-13.310977455954815,3.1898519463287416
0.5099722765526893,-17.93332790016145,-18.846893805203333,4.988494433979931
4.86891346897106,-6.8230198863383675,-13.846862344684384,5.8914383742596215
8.893322894184244,12.817815009485752,2.875037126930905,5.476019021551271
10.732195945661466,32.38127860298744,23.118206111185074,3.419669612691516
9.224781468634722,40.7397279001437,34.24627469751467,0.23891727958437514
5.6697390173564575,33.988586446761275,29.014591585792218,-2.589272287763675
3.6340335856915003,19.896415512759376,11.61235052831455,-3.371037234931195
6.226097396153122,11.475720845938149,-5.527870514497739,-1.147015241208134
13.065314816093576,15.649471307807866,-11.066274367459885,3.640850471938534
19.94704053302961,28.367337080903305,-2.0579051093540146,8.874636690973844
21.798370321321524,39.97989311999654,15.879346175252484,11.326898477000869
16.49639167997787,43.90331479429788,33.664982161228345,8.499002969474526
6.467858214735714,40.15327590571928,43.88339995791729,0.7484442704099318
-3.0765928334426196,32.490927415909674,42.94190821132501,-8.407491310156027
-7.857559067295842,23.767179041162656,31.00566530831721,-14.571161275762908
-7.39981017906426,13.829698662343748,11.549189038696934,-15.439049007609686
-4.870972476207996,1.1655069029593155,-9.242387098869568,-11.956201958995957
-4.0507232183617665,-13.5464588480968,-24.42166842193507,-7.151013163927702
-6.098675441161763,-25.68315006729656,-29.710458828186184,-4.071932522156918
-9.024068516806615,-29.386502128994657,-25.99775536662084,-4.216634125380594
-10.10082068352971,-22.831006753032746,-18.21733554263538,-6.964957029809523
-8.577475623852198,-10.734622746575443,-11.447614146873727,-10.148565742106793
-6.081696745947846,-1.4066183164338915,-8.252875989754928,-11.535066680049166
-4.798254439457792,-1.2704204154737413,-9.353801243684021,-10.21675257990731
-5.522388590379292,-11.333169576203476,-15.037446027080287,-6.792140799175625
-7.192235771193387,-26.87480583140583,-24.191745690998374,-2.476175869153147
-7.855404539548931,-39.397453096859856,-32.34692411562996,1.6685482708372308
-6.11526991340876,-40.494251225261415,-32.72266844687504,4.822117094139695
-2.078461159630998,-26.827666434533327,-20.85653590301301,6.451012692590948
2.8181927355310905,-2.858995423741604,1.3823667489051175,6.713503745680035
6.927404827713496,21.802013574857064,26.398824861239493,6.539080388909727
9.386072768274074,38.55946596756016,45.485040534162,6.830797767833749
10.064774678604964,43.86788129615598,53.367680963834815,7.568537274561819
8.895771798173156,38.55825658985851,49.63999778733971,7.9038147278539785
5.802505934351727,25.689711727295933,37.588538878619865,7.031919613804127
1.4608998980579846,10.458095870397807,22.744151645492128,4.749168190539349
-2.3014266666008094,0.5359918356207098,11.870318296182846,1.3687928888546828
-3.412825805184416,3.0198803897364432,10.813388186478166,-2.4354634735483875
-1.1066928763952077,18.652635783803042,20.436374634891443,-5.676297381199237
3.33569918200925,38.73099113406009,33.355139169394675,-7.4202632502936074
7.246320430401367,48.65642266959618,35.92804009606762,-7.40665820446041
8.103588636560737,36.72879796933304,16.807684425377342,-6.168910116421417
5.065898625013306,3.0591152820240937,-22.730633670627054,-4.4708607724375335
-0.32630234761963456,-37.373620758736585,-65.22448938751995,-2.844938882620749
-4.966275644870867,-61.70078226718953,-85.69299840575509,-1.7185523371756692
-6.320180258171649,-54.133201691852285,-68.58670080737167,-1.5478053155783664
-4.310942144270964,-18.525454897328895,-20.53257883137329,-2.420108096705732
-1.231345472355335,22.889400662032287,32.279899191248745,-3.6711556491784414
0.20132344261834698,44.91845048827988,61.22884431322791,-4.268643798887626
-1.2439971802880205,36.27026903526444,53.80811851594015,-3.630240806157244
-4.918864342823115,4.558039106441558,19.533865103390625,-1.9478163248645028
-9.117324518390367,-32.091950074573944,-19.89437901812121,0.14689133081571698
-12.029219825082292,-57.750639157614096,-46.683361690033614,2.005406379288669
-12.386565617414982,-66.2485251972265,-56.21335800043553,3.229757622916768
-9.895058369524358,-60.56362365888312,-53.9728335168633,3.938600864515952
-5.322076675710689,-47.10247666278526,-46.01476877972356,4.811062303821455
-0.06415577308578252,-30.475386207576392,-33.39958890602175,6.516482779095021
4.497668371591963,-12.751803174380598,-14.952170363240167,8.958840578599272
7.395152212102207,3.7086034266159804,6.924363453205376,11.305074522487782
8.242600057666438,14.614411038223995,24.952260662723468,12.807755107452072
7.3954074070061955,16.18066450042015,31.44730060896373,13.284449168057634
5.881443601294953,8.882511340412067,23.571725779649444,12.694188301964854
4.8073778841705925,-2.1932475351307352,4.972301902930998,10.728835487066952
4.645216473018873,-10.791555464604562,-16.164865931929768,7.300028613686918
5.131028284467292,-12.906577680931333,-30.5854922002485,3.2499346038662877
5.70283196186303,-7.850213182132214,-31.870385868912813,0.04779732250844658
5.711643659265717,1.7844381724801908,-19.866697742278586,-1.4057756487483675
4.302722387361418,10.500543981066157,-1.4227149199919729,-1.5310019463592066
0.782611488115653,12.403061377259966,13.326061193160738,-1.654893587997906
-4.320834891750241,6.017794370896241,17.38034055680337,-3.004900815404649
-8.74059932655084,-2.965129255885528,11.298041583200988,-5.932106531939415
-9.654452705703335,-5.279012528055945,2.0569830301721495,-9.667918862904214
-5.855070567336437,4.242225710137992,-2.7113506244588383,-12.707405110159637
1.0822120304960563,22.014443551830116,-0.4015964967253975,-13.770036691540007
7.687555820111839,38.17145735411305,5.484332350169801,-12.663031177222976
10.739099759178117,43.460272460713036,9.389830807965838,-10.138756066681069
9.099851261013672,35.150007160964016,9.168382772155702,-6.911578923091051
4.210513771699316,18.682821520009853,8.216255241651774,-3.151689008117172
-0.9578388908367212,4.406084870398336,12.30483140208685,0.8621388423363316
-3.861169673070731,0.7756129804756249,23.60451444301823,3.9740250487985316
-3.8999005185650852,8.373205008275033,37.32170436128442,4.59546580566736
-2.3161216590556832,20.08821623613695,44.81558352069734,2.0763828711551264
-0.6985068865073534,27.86681138949321,41.17392334193805,-2.483057319094558
0.3885114101989108,29.523638875664457,30.201060308276237,-6.7632938722239775
1.4933243544746688,29.00157487856211,21.43443820194408,-8.5619206734839
3.3619878447362153,30.698429345107748,21.31335160501992,-7.036828908202252
6.008838316927622,34.10435418333891,26.52399199265371,-3.2453702351246045
8.363763469011845,33.4320381167642,25.951680812691038,0.4346117550777966
8.67046888823583,22.06419766059404,10.15150751448077,1.9094392441835235
5.674281786520514,-1.3765895206434564,-19.45247352335878,0.8989097503218193
0.018946168444130187,-29.56606971246029,-49.58935510951834,-0.9759198830186555
-5.524901113449513,-49.3104228956585,-63.73774782481369,-1.6128708408426613
-7.801639607639341,-50.33312270358807,-53.81685044427986,0.026260760652060223
-5.777104000190553,-33.604631801534644,-26.072193036171473,3.436378286869811
-1.4808564533103137,-11.493047117729407,3.0473347030338918,7.066729559103494
1.5713150019727962,1.182151181787967,17.821148551671634,9.186512037530008
1.0594672334420216,-2.243325900734716,13.347408988795824,8.866299778315312
-2.5715938827266447,-16.48753342648686,-2.029252087209044,6.717517151480945
-6.681141142745862,-29.377979746574375,-13.63494722079701,4.558580002188342
-8.50459219124075,-31.045188319680122,-11.739933480138049,3.845123966484831
-7.172626313799523,-20.544322385805156,1.5230980687034978,4.283267869704625
-4.1945208121755195,-5.598953833656304,15.081358528765156,4.203278927061219
-2.033038831963796,3.9923965597382116,18.67966012276751,2.3176471758908725
-2.0322375400342505,3.859362862671234,10.617786976729443,-1.0687732758706436
-3.5848869269772456,-2.847768737868528,-2.6825147703251413,-4.4649119742208265
-5.091133297495392,-9.905952443645525,-13.41714700277801,-6.4433089446744125
-5.377473036622235,-13.60361551386486,-18.576948785318656,-6.540197881391212
-4.11117500304887,-13.722366575645943,-20.518969292970983,-5.4342054969898435
-1.3401784352967978,-10.41344758329473,-22.437294740465937,-4.47000494799722
2.718627196866877,-2.255501169393321,-23.55698344742821,-4.612722622220281
7.328353922969397,11.647460344899805,-19.042783370219123,-5.47736034826777
11.08997808059631,28.335022061740645,-5.352686663220227,-5.550187248861946
12.5058256328678,40.708458056973754,13.871092947798878,-3.70804335804075
10.788156493270359,41.1317567260909,27.881905505945955,-0.4792263070069347
6.3111736028124765,26.490825974972598,26.39592368922549,2.3966963272030064
0.6084702960182118,1.6583505192326806,8.766006409973437,3.5339578520996926
-4.11594330955796,-21.393200109871305,-13.647664108209943,2.8165953321675024
-6.125510860632089,-30.19453609901732,-25.051702641938846,1.0117476755704409
-5.45678900277383,-20.927589105628947,-17.192528473647734,-1.0063878422112014
-4.099929820638803,-2.3812443951118376,4.162311348479922,-2.5900728857158395
-4.414941205198109,10.410793660066116,23.862053414622306,-3.3767033035924796
-7.019145341784287,8.246219504132272,29.26857102268282,-3.379675971282787
-10.168934786345467,-5.373872082601132,19.3476103909274,-2.8966965361104546
-11.234039081598864,-18.472069860446485,3.7640000568301013,-2.1519702840357553
-8.876577958215758,-21.06835529631129,-6.083884153389455,-1.1440694912333236
-4.0857970327519215,-12.275278275791864,-5.517964190811332,0.07894475942768092
0.6366902044210097,0.9428222663203131,2.2517906847693614,1.2576791077526714
3.2033541529609355,10.5867705572276,11.25673009418194,2.2650394995367624
3.463958090394254,13.414402591190782,17.564129550618365,3.4196191120234927
3.061774512278052,11.06105895980934,19.176707133280775,5.147753491315233
3.693991492769158,5.630675973655809,13.47809914319979,7.3645862230787245
5.429147559706409,-3.2621738201884214,-2.0176946564148674,9.363904032092679
6.849122387536952,-15.706056299104775,-24.77999356113043,10.213534503060954
6.86659902495734,-26.443806833950543,-44.574042499839145,9.10461641017734
6.142680661224903,-25.63015622290062,-48.81779481561939,5.647133838603319
6.496387921253396,-7.438043152824472,-33.000802250752976,0.4425609383414615
9.010370648965887,21.79287774245262,-6.3497045696794485,-4.525185636824082
12.836242205250912,45.505163351239126,13.59748207912323,-6.649564679324602
15.708651484730416,48.59214619516001,13.798713097424406,-4.468340770126427
15.517548328671333,28.7778130307754,-4.305229838368405,1.1075461534229716
11.720582677459193,-1.5772160616535797,-25.625329860097008,7.264868123461655
5.73115728471987,-24.18608531852141,-32.812241250053646,10.953409229099504
-0.0349163826268639,-27.58229486406295,-19.73596681187761,10.46049088384064
-3.9204380054332444,-15.077713965384863,3.544536412085645,6.166814558761409
-6.129187959682007,-1.8531044036020599,18.57613295442233,0.28212372577941197
-8.006350288738819,-2.392386191864325,12.99595445010768,-4.514678126129605
-10.212497293249431,-17.83196638767985,-9.765799281201213,-6.9305725057749505
-11.856519065723282,-34.384575773103066,-32.80600500436344,-7.872083366837352
-11.518465930874546,-34.74113362139901,-37.654239839398336,-9.221372262776798
-8.8176781706136,-12.237206688790891,-16.556156098327776,-11.669911958544214
-4.757577400311269,24.383172477711106,23.122799369815425,-13.839458362241123
-0.8239815801065373,57.83384743010644,63.963848160145595,-13.506657623400269
1.8928268668631267,73.19311938721418,88.36546525323715,-9.57664140423642
2.9095489633511677,65.1263138965994,87.08662796531226,-3.0679312247113417
2.29611539797344,39.26488323691246,62.78901371811464,3.3857995475354388
0.651078176331956,8.654830093407995,27.838756156313927,7.001112342377698
-1.1540566792454818,-13.285028805969706,-2.2780466091573275,6.485290224375962
-2.515800307633658,-19.93170550628104,-16.673581313274436,2.855501465551064
-3.448040807831333,-13.990122408602847,-13.747521524415298,-1.3518207584995314
-4.394000777348724,-3.9432399894060377,-0.4928924941814768,-3.9539945456504824
-5.683080935958694,1.9351460256895192,12.425421861785772,-4.32997739940123
-6.978939136574702,-0.10801352109088953,16.6589405904958,-2.9989194297558743
-7.039043811585577,-7.580210800590207,10.453673846010437,-0.6101880182665766
-4.240098165837636,-12.64646150110632,-0.6278613692820795,2.218611024172801
1.994655488345946,-6.835446799400063,-7.369343995075971,4.468744035789568
9.865756454047377,11.712940332386435,-3.3813966023625484,4.968167752110343
15.581133549722056,34.504217606585584,9.911859511564174,3.3861711714845977
15.750684109972982,47.45951005693315,23.743414244894016,0.6668819319471252
9.929243922045307,41.05656414973653,27.736925743790017,-1.7530320030225854
1.0601563318511498,17.037860967030145,16.573481186228182,-3.042842537816304
-6.468127802916536,-13.352036146728274,-7.031088520589715,-3.3346605681158215
-9.425869371342735,-36.73306635589139,-34.35154227587312,-3.34434430067261
-7.2217492916352,-44.56696351337709,-55.38100239308495,-3.7742096297046253
-1.7539264858018688,-36.28285311672448,-63.001604371941056,-4.737573422291353
3.922035621145072,-18.24506271456186,-55.171092671516305,-5.455644235795596
7.343596118708055,0.1989002627801085,-35.59179184357534,-4.698652614194164
7.8133285775315855,11.293748681585305,-12.925332377498268,-1.8799283003578215
6.181446495962958,11.5481654847792,2.5365960188432175,2.2178411260492465
3.545711747158885,1.7587351202502273,4.358337181399742,5.881906814080386
0.24208516884523076,-14.258406477459296,-6.053694986573485,7.5804884201049765
-3.9370278104398517,-31.048962983588254,-20.675361097849304,6.708365878840301
-8.817685722009859,-43.25140605029665,-30.455615120489423,3.728603403243204
-13.345839877785123,-47.68757695519681,-30.56608666645908,0.08245374450077712
-15.936203897254385,-44.45025622784471,-21.894148343503147,-2.217736072539368
-15.31379900743143,-36.061593117926485,-9.279112402447808,-1.6454819091634496
-11.359655474632058,-25.831386061775838,1.3547701024688166,1.7008526348115112
-5.445615019089354,-16.86226811085647,5.7291895206278145,6.097961480795591
0.24647638800210403,-11.287831879466511,3.176171229468307,9.520956305983622
4.177046981534705,-8.965944859095837,-3.1434761313589172,10.971849098578113
6.348795371237198,-7.114296861109423,-8.299028775469287,10.663061729116318
7.5965059178474945,-2.9002541072219903,-8.78981049019354,9.378770254310549
8.058245721307879,2.814164973785012,-4.601793814010049,7.922793215399866
6.760676237316404,5.418909317584282,1.3878693716069084,6.802577210655104
2.938097002152491,1.5037085139874784,6.0119728968230595,5.877984266936248
-2.4697070108610815,-6.361957571741938,8.1604863895815,4.2792482593865495
-6.907936244232788,-10.563644796826251,9.114874382230045,1.0631437519241662
-7.820085070294004,-4.114738036740975,11.141295544075907,-3.852914901313424
-4.307441578453279,14.478290789686517,15.845458121499954,-9.484703451011109
2.300472052879067,40.338102809836876,23.227030660033392,-14.422577698851404
9.105236975325997,64.43201601216697,31.53100241031732,-17.45454105937835
13.152570754225785,77.43931511354997,37.97341964454771,-17.696105726619052
13.085637563854185,74.32073093282567,40.20739869167952,-14.678811937749
9.860708180570082,57.149283013155916,37.4968049257175,-8.744296220474197
5.863735077140088,33.47876943327191,30.489475155402907,-1.3157126068177645
3.1142604264382627,11.276295741018584,19.98671998517696,5.4260319497402625
2.073370496988376,-5.0412336068123835,6.428050152182439,9.301382829279635
1.8276874106700811,-14.633256117112715,-8.881925295832454,8.950260536636522
1.1011585610310526,-17.93050939085597,-21.943641707258134,4.519435632531393
-0.8277618800927699,-15.07550662880431,-26.267442700268653,-2.153033302438706
-3.7248171350953774,-6.2536690599141815,-16.714699716842745,-8.376970170139666
-6.563446102127751,6.82143633806094,5.091952464010723,-12.160800599444297
-8.1860825182675,19.773861459922543,29.086814857121393,-13.127362165891983
-8.065305439626865,26.5766083131365,42.22884370678602,-11.971201086278352
-6.534394196809232,23.097582806164365,37.53812614689784,-9.344044832238206
-4.3508728483409,10.34692493987557,18.496521317802426,-5.554102251535169
-2.1567032839491453,-6.2282732313547156,-5.070852781346955,-1.0631260379232141
-0.267495979254014,-20.823929569255508,-24.6827064164481,3.320791058631681
1.4049098246263347,-30.016534027158823,-36.84398476825708,6.873761494592134
3.4075115735949217,-31.768799004927423,-41.04246897271652,9.215696421613892
6.325619154294082,-24.06505479414862,-36.76401599267787,10.038594092526136
9.82115921270761,-6.892113262367396,-23.631968025925094,8.998746926275357
12.221455166925114,14.643133355615142,-3.865391587496085,6.201959664274276
11.653278065880405,31.45565661423175,16.57081429928317,2.5870581234426426
7.889520861301472,36.4183599059649,30.189401927714062,-0.4941942726226872
2.902846320789299,29.30697408041867,32.16129269458856,-2.0702407026006227
-0.5912134460878509,15.929538559381374,23.135439909388392,-1.8746414921127095
-1.166774490825459,3.1691676225366563,8.648039700777144,-0.16996194044109234
0.4942854312134105,-5.000392908619904,-4.054529400570086,2.426891868106662
2.3276411353545092,-8.321142403628196,-9.541515179790089,5.045966052269885
2.282907110633909,-9.172415949377005,-6.642600742630243,6.818618484324741
-0.49227110055810847,-10.897122858048663,0.7603815422984408,7.12238282033657
-5.206095732062369,-15.838055130876189,5.352773875710409,5.581116645742655
-9.980442037143806,-24.054104552027052,0.6283638014933437,2.189427192679117
-13.078985142918784,-33.803105299758464,-14.306714668539852,-2.086991138063707
-13.792626702143464,-42.86710947750149,-33.10824605109196,-4.997483024353775
-12.291764302079521,-48.91184647107763,-45.899184632832565,-4.140312183910471
-8.98038739074817,-49.334549784504034,-46.19621289503956,0.8928168893386846
-4.364570480019624,-42.506120302975376,-35.65381645068872,7.519675101095197
0.5511529122034183,-29.819523124490654,-22.408312763564606,11.712525868436007
4.277001229905787,-15.594108674915324,-14.253771961945079,10.896710762982593
5.6254754203299075,-4.269252389586529,-12.719467450189647,5.728704495804053
4.466885064400735,1.968380683808795,-13.184555219970768,-0.4793048180036433
1.6900978113064764,3.0216093813462,-10.149050289505345,-3.979397059657166
-1.3546974720016804,0.03672590187555697,-2.0658810224489232,-2.909150395728749
-3.33088929877859,-4.178973744182573,8.491128762799752,1.6494145970552228
-3.341826181038978,-5.210212190446649,18.241841785932582,6.5530620437089215
-1.48951005146717,0.19627155297766485,25.860134043752947,8.834963350683687
0.9419969698103602,10.717593069050782,31.306032355686014,7.502217498851856
2.2700688561577014,20.691668656408893,33.428494976116376,3.489978611145165
1.6829454462852724,24.341638038360923,29.30755508590815,-1.6701636360695429
-0.19768894650774174,19.782714197637183,16.641698063264343,-6.756910201494751
-1.9093299461094053,9.660577708149725,-2.980239198275987,-10.759101755996276
-2.228035605948889,-0.6927826709021868,-23.127623021322545,-12.78009991379811
-0.9341974790376433,-5.627964012609536,-35.11450053725637,-12.645861996690806
1.0338860093413595,-1.6792447685099041,-32.679970000766865,-11.425205305975263
2.0947707167410887,10.21903773113483,-15.99187003087606,-10.871610258755661
1.0778647620022004,24.635453088969037,7.601676000293671,-12.13062672971701
-1.8348143771219498,34.612157226197745,27.14910596799083,-14.860751276200164
-5.103388246844315,35.68644623192237,34.35238173441135,-17.299845498512457
-6.781919827580946,28.04980282741316,28.38778221321893,-17.073839689966402
-5.568554596712259,16.05929030428107,15.639252319556983,-12.519047149655082
-1.3185104022467014,6.012382488022233,4.577739454602858,-4.111374534000315
4.847012779406213,2.9312679825766956,-0.04504715927419444,5.086204520884387
10.727426158355598,7.502097951790387,0.6842611513631743,10.895154736055174
13.910212810985334,15.570327268786453,2.3085078773670533,10.710307270508354
13.236307915320829,21.283756208861767,1.271908915104248,5.3300768775650145
9.647271618100309,21.071461057564402,-2.584427048541189,-1.4658067728971693
5.360889862552994,14.720882005322085,-6.60917485158121,-5.124960602748932
2.0804659612759284,3.9307002359630183,-7.4907260555388735,-2.885231983893043
0.024521107624975332,-8.377455502858965,-2.9336439289304908,4.5497199428048525
-1.504712915943532,-17.608268040117334,7.430969302011923,13.142570313172788
-2.979361506357417,-18.895513603782877,21.229372840203233,17.817238313918434
-4.1164533412586355,-10.861948127458861,33.21685587438622,15.77613422515095
-4.176621048248243,2.2324797580839517,37.23130535025692,8.386117527751225
-2.6712122951282966,12.79900313448908,29.682291625596175,0.05186583687834194
-0.029079917793265422,14.448154895821308,11.85799805839354,-4.893106818697912
2.282492592711862,5.083188022682948,-10.646519525342512,-4.745249725481446
2.5713329110890544,-12.17595613610684,-30.307153122436365,-0.8982812058084882
0.2386307535101875,-29.711960145761978,-40.16356527923955,3.5158267448712106
-3.5958506558056165,-38.64922324614454,-36.21802107455752,5.745696635738071
-6.828496228394609,-34.372274651958605,-19.725428504683027,5.158986387368513
-7.744974464547698,-20.130204500327626,2.2684442696458227,3.47754799595574
-5.842373079206771,-4.567723459945268,19.909116110422747,3.152077482205038
-1.8087487851750867,4.871033791062227,25.941685908728363,5.175476742065542
2.8581161940887894,6.3645993998130495,19.764033097532106,8.341917814882773
6.3823709372236275,2.980129563824181,7.190027098959721,10.43292981224445
7.516219000328197,-0.48046121926990704,-3.5706735491800616,9.843736827734825
6.279894253783592,0.15245299892048053,-6.683208971206601,6.245622229700698
3.911058137108421,6.84018302715566,-1.3737609064432315,0.4395035951857935
1.952502724102874,17.96932849740213,8.373603903011713,-5.912143599826252
1.2971522040164636,28.615433950640327,16.29769032821684,-10.800945833578776
1.8880824706751196,33.453073645624926,17.131178321289816,-12.90979181642257
2.9813086687378862,30.156056268024695,9.289969456564975,-12.411567539458687
3.5927634271149396,20.167141663019912,-4.363494015866154,-10.513439070469987
3.0023342032844123,6.741782960766514,-18.3303723775302,-8.147186827580542
1.1742241158429956,-7.141132918462654,-27.722071653636085,-5.3108050026086735
-1.2664171039400445,-19.414390900305545,-30.55712055528888,-1.6559928127015973
-3.5493489544066303,-28.7690335038337,-27.772681875974456,2.6424193616168297
-5.210419664939075,-34.50501184976191,-21.82465385772518,6.72410420653028
-6.05198706312455,-36.22449409222119,-15.385993462116735,9.451633428938992
-5.958192457089114,-33.533203659911614,-10.45468608065828,9.861068742531698
-5.038970678162773,-26.49008245774683,-7.556352484764321,7.604555965944499
-3.827932052147317,-16.52132093418297,-5.626417572941329,3.3407829472440187
-2.9898619027989137,-6.452769339098092,-3.4548002342614956,-1.436015939218402
-2.781502919141306,0.6120222160255312,-1.7914983453876445,-5.28589080217322
-3.0146622689853606,2.3519610382583376,-3.5569140416291676,-7.591118825473857
-3.51439322507463,-2.2087712365735097,-11.032764522448375,-8.405942018853384
-4.249619175646603,-11.711480806443248,-22.407270124926985,-7.840113073108814
-4.8822527070733885,-21.44917408555954,-31.4369346128042,-5.949294704292101
-4.577455320017318,-24.85296641811425,-31.33741415408722,-3.109765140043203
-2.6802584519674832,-18.132141631839556,-20.020315684960664,-0.07230452946721373
0.4508818520389249,-4.044058137081398,-2.360930971126767,2.4341994524674533
3.5182149355963577,9.732743751871455,12.583665725464787,3.8899672910179266
5.205649998313749,16.5426723936794,17.59164719904375,3.834560302315108
4.988815396125157,15.312350112781349,12.184280891551873,2.0307720027024305
3.2866729824747947,10.179755690106104,2.826370222566343,-0.9700392920969688
1.1436224871340412,6.834135225734787,-1.7253934510602909,-3.777856899428739
-0.30127046944006103,8.901654297505353,3.471813524299716,-5.0860953645453035
-0.416194643944302,16.09547066402178,16.421859133218607,-4.6292188633280995
0.6199458831426539,24.738333962860068,30.19178826494132,-3.1254711800326103
2.1331259792510457,30.566146855813177,38.136878683576796,-1.4919435942139732
3.528788841514955,31.739459962711592,37.98232899849571,-0.31568405492739465
4.453460958879562,29.214659859262124,31.96234847525755,0.1879117461633308
4.595345006987264,24.71465544114191,24.177160690793745,0.1412409776331789
3.7929747621085266,19.612817418082308,18.21209292908737,-0.09329115358013909
2.4819875810900203,15.906147806761817,16.214419734565524,-0.32608003204065367
1.6208181579119738,16.21486243773382,18.379012625031642,-0.8712936357722116
1.7528889367121137,20.768949764053986,22.331662677254396,-2.113124295133548
2.215888162933557,24.763052048247715,23.637759233694688,-3.624160776425121
1.608035882315624,20.704640028207002,18.311368844634547,-4.016873201637035
-0.843900312368247,4.717477885442316,5.927401276729619,-1.937541648085082
-4.416559525810915,-19.238976476727643,-9.329478211564245,2.751931854767963
-7.287672253276967,-41.21174810192698,-21.051824541312772,8.629963186583327
-7.724040542510008,-51.32455220860177,-24.943087577560636,13.285860196238707
-5.168498477881638,-45.39483782119346,-21.490945192675547,14.442887128210737
-0.6349346371925533,-26.811996785868004,-14.446657423974683,11.32944882304612
3.8355853143344567,-4.155632704396503,-6.867705173262995,5.543645986528142
6.4245327780138854,13.596744683811105,0.5073811062448099,0.2861880532201868
6.601043649673104,21.098375523026817,6.642178179988671,-1.982077565899435
5.130330829405327,17.724635857887236,7.456154515107575,-1.4659880172676027
3.218713718374156,6.552954926215638,-1.7958825603138562,-0.5626706382029099
1.8186556156638478,-6.541246059120685,-20.022545981248463,-1.4539842403754548
1.527146706859267,-13.871782986284314,-37.09503568573318,-4.193416429288754
2.4757514507004474,-9.52079638516004,-39.63597712038603,-6.896869023910834
3.849004440348246,5.054128836551472,-22.27354712433798,-7.439546296348165
3.798513587409006,19.474714659436852,6.373357541068139,-5.099283492510992
0.5732205782195064,21.758033603262763,30.16692372470654,-1.1487470241122164
-5.744234939496317,9.569604353219276,39.193395990754134,1.8655725538198695
-12.556805808003155,-6.215216227778347,37.092055819698714,1.8304073106551464
-16.05740659304921,-10.850748737098892,34.198176636703174,-1.3683613996543145
-13.75872610929028,0.26327533862474495,33.95376517616214,-5.761209456034681
-6.466200158554623,16.281635559362037,27.771797013283745,-8.756298442211197
1.8371414715504562,19.370041093606453,4.5954539472559235,-8.678764861856749
6.455616526597758,-0.39702208493652613,-34.6290310344877,-5.1778582015782435
5.294853603118977,-36.045636024952046,-73.12093485826705,1.097309483610709
0.43006877625170503,-67.98727527351896,-90.20526303433171,8.607031992264385
-3.6311009848440254,-78.40702052120342,-78.31319261382167,14.955929172066117
-3.6568069369167153,-63.96728451526176,-48.910928696256754,17.645429929909437
-0.07955572263952858,-36.102462510684965,-21.768853455125605,15.395716985119929
3.8860711124603755,-9.80511494768614,-8.216285356940256,8.93355506548975
5.13371298765889,7.245048469622433,-4.379633359784428,0.6609187407611994
2.845647048025818,15.701013540866388,0.6456538654850221,-6.369000231408428
-1.350090295722701,18.603586497675362,11.91795966580109,-9.67681397022032
-4.669602417633219,17.759056172809093,24.408850066290555,-8.584931754305225
-4.891480111288545,15.329405359779884,30.041996633184517,-4.8037785604943775
-1.7447315556815435,15.230473532232551,26.9909913039959,-1.4247018858478275
2.8419989535826136,20.214942974884295,21.218307437529038,-0.6097725306082851
6.072894693129241,27.861439892349736,19.297467724651273,-1.9629146137575049
6.314255337233808,31.128436065128692,20.807778946799758,-3.2101103352600218
4.081841316626057,24.03315207098824,18.802116231723762,-2.463518654333353
1.2561666110535465,7.37818023538151,7.830439407338571,0.13645385487049327
-0.45304434973661345,-10.71976850830054,-9.476150627574027,2.639777987373888
-0.3982022116902501,-20.17946749942814,-24.3425171776653,2.8307684021338795
1.0887818699608645,-15.932105355912672,-29.38246728580841,-0.08798828429576344
3.2458544670216907,-0.8486045763466105,-23.166039042022653,-4.6393061198002865
5.439175758068659,17.547016582858063,-8.415615275005928,-7.739273153692976
7.429151118434137,32.93300894793287,11.554849567523986,-6.808985832413627
9.075336141131734,42.70842801262057,33.13906369257917,-1.8169573398087038
9.741857235158971,45.63674559554837,50.58865640614193,4.673897163939189
8.33940382115851,39.32410892106581,56.62418470700635,9.571514990603223
4.428047032015144,22.311148264108056,46.914676908196654,11.366606736362215
-0.7228729896508312,-1.2588283840491017,24.60210287370002,10.423330772728805
-4.634852208216912,-21.23797428334129,-0.10072729047521578,7.7930489423974105
-5.536609330378292,-27.955119430544286,-16.09326225731857,4.199090147337572
-3.8437859983056732,-19.92984563898619,-18.745795750009734,0.006954624917586535
-1.8000269892654026,-5.322225759679269,-12.323099661767184,-4.293659597876763
-1.748178580494624,4.084007404510052,-5.575397010006171,-7.794755879749679
-4.486707435859872,1.19033318298597,-4.553470223364189,-9.384567330405337
-8.702336726503571,-11.659863977147582,-8.660719013336934,-8.491061721931194
-11.715952910131874,-24.330229922756327,-12.587681865748163,-5.876143589012868
-11.233241402704449,-26.222255382385153,-11.751494651306057,-3.5000389070758353
-7.0794439073616875,-14.535299942907137,-6.26172184241897,-3.085253800459359
-1.505952978672401,3.480301040797867,0.07564041882559368,-4.5831296860236215
2.3849345033592355,16.870389896886955,4.462411122598493,-6.2060433537826825
2.830314207502338,19.880951367676147,8.126234309577619,-6.046867531348648
0.4296743286273279,14.681304392526187,13.671362384694305,-3.5966998177085885
-2.5522869616570127,6.585307017301719,19.482939396809694,0.11182600769955622
-3.783926703082926,-1.430868331659698,18.39354423731087,3.3609387499763983
-2.283070514620528,-9.186850670046443,3.919826679593177,4.672461359508089
1.0596413087041612,-16.121285605801965,-21.247434512846493,3.510633085113218
4.166239490530299,-19.391089791186864,-43.63015528311506,0.6750401345474966
5.2860779951917385,-15.65373976758394,-47.838358876843415,-2.07280182506567
4.130282473346622,-5.039605364699943,-29.495518618101745,-3.178922710548262
1.6184699362932542,6.321701786057739,-0.5660589422668378,-2.2256599374063195
-1.29648926703376,8.706429750633145,19.037960375311794,0.3031428706800485
-4.256078915638518,-3.891145117821987,17.21987155296195,3.85744991884432
-6.997280370604693,-27.1975793891319,-1.0633005339255892,8.015096389078245
-8.721089414422904,-47.959946991668005,-19.205149921666003,11.974703723139921
-8.372012245263313,-53.44412998157447,-23.453894306826086,14.438009517809794
-5.508995453488553,-40.8987018363548,-13.409951527059858,14.327813169191133
-0.7817759664621903,-18.70400681713324,-0.5706149396486235,11.508327493533175
4.23493105520932,0.5787849661944838,2.118979295377435,6.743067148934102
7.483239305790502,8.422853825375512,-9.352900062202824,1.1571399383905914
7.147506093141105,4.459383088954362,-27.016872296671906,-4.225609869260472
2.81985723659768,-4.172016088350611,-36.58231400601514,-8.763146049620369
-3.6187939967906186,-7.197934679519425,-27.57664942650275,-12.257437105229233
-8.635076785925179,2.095844952885485,-1.0017282590698264,-14.576986810000646
-9.212493451447266,21.62020510278275,30.895275210553624,-15.130121513079136
-4.866205568708603,41.589531136778156,52.759471002755184,-13.079484411560255
2.1537450834565326,52.06122839043761,56.34569434491035,-8.432864001305052
8.433474498437825,50.14501077720538,45.16369554341618,-2.7018757087855203
11.419965244698817,40.294785303746,30.148311961194977,2.005497629694241
10.7044792963643,28.83237053520668,20.35831453962287,4.636245752644608
8.022133904171111,19.31121461515857,16.790979244791416,5.720834992218144
5.942192332028708,12.265058491576493,14.0052776478842,6.321104524606315
5.94849740000722,7.011360446396305,6.70208903544706,6.80306405193195
7.327181298675106,2.491506848885423,-5.442249680646363,6.707574807057468
7.889210829123847,-2.4991629218853793,-18.173466087767828,5.48265680326611
5.981464380966702,-8.203254647861595,-26.15509835753706,3.16775374919301
2.0611974234367905,-12.580253776322591,-25.718263600190564,0.6109444949954963
-1.4703507850487638,-11.732638515787425,-15.685598888728341,-0.8373702782306794
-2.0667540033564338,-2.6625318016990125,2.376531045465426,-0.17674678770908703
0.7937815126115404,13.098984252203044,23.639399252982717,2.3324811318165124
4.707856436765865,27.7167090197406,40.295046098837155,5.191755790350922
5.78785864310547,29.996303233720862,44.03175280506637,6.819967990879973
1.808413765028884,13.23803093215793,30.315214546713786,6.609841973695529
-5.4947139098967686,-17.327029400721525,2.0642330188918443,4.76466582021233
-11.412054197316978,-45.35867168208916,-30.07968796998132,1.5294306003611926
-12.041323093149341,-54.19222929823925,-52.07555073581842,-2.794597785006382
-7.418690725929907,-39.26731429524027,-53.875267840443854,-7.070313182024588
-1.1238348121066999,-11.463374633652814,-35.82470621093378,-9.205288076992074
2.9313978960964704,11.111479843999485,-9.316663889698763,-7.376068163898778
3.339250492240577,15.659348977971407,10.061798033741024,-1.5505006713736957
1.4902700359909289,2.305910541209755,12.683272274287482,6.074594575807832
-0.19847137309307933,-17.55946365881668,0.45520944646663863,12.019218394116509
-0.287337539461224,-30.173588721064533,-16.48965256915808,13.278127425399552
0.8614006595357573,-28.955360303475512,-28.18110503749706,9.081121875065476
1.7803458154872003,-17.645886349116683,-30.53664641487797,1.613267305479385
1.4276330776043356,-5.034691964646499,-24.896646472545847,-5.172008996862971
0.2117280143534407,3.2204187647422526,-14.427649465416529,-8.137219267585232
-0.4575135458311093,7.821943934401566,-2.000874160309108,-6.932880046991567
0.3472740366800053,12.070947179298837,9.35395874788957,-3.7802646915166003
2.0472356928255078,16.52098314549194,15.682673079834677,-1.6191045001639954
2.9654341428173985,18.2059847393591,13.40657125114259,-2.4136549059563603
1.7181382770336528,14.721911828024007,2.5831791920879734,-6.515399290494732
-1.5816092969811446,8.209995105931773,-10.896653751631517,-12.692975381454758
-5.1617294419390545,4.757389133949307,-17.68525732969166,-18.50571324827819
-6.721085708314305,9.222042063147391,-11.687539729732174,-21.290623515120227
-5.384757053657435,19.69314422374614,4.3377222136641524,-19.63339261545477
-3.0181440788192107,27.03442231236421,20.30686295723482,-14.325924341474968
-3.1986762917960556,21.80628940831525,27.28113765851837,-7.974429127134879
-7.98550546551498,3.838978507018138,25.285665511754594,-3.479116098481863
-15.294706457502542,-15.248822399710702,22.462615924835454,-2.277308637571002
-19.840031900773056,-21.35237901403627,25.84741287813753,-3.289842735975387
-17.280450387366255,-11.102347201379317,33.18002749927895,-3.432796825670852
-7.891494491031061,4.8092262169610915,34.80126701079587,0.09653085111356947
3.4924200054406054,12.00437408309394,24.04489163336208,7.231280142741634
11.002455986096855,5.289864135914375,4.9903580648231145,14.684322307369325
11.692564213387469,-8.961475623676549,-10.924863672230057,18.662710701970465
7.051878190131798,-21.2305259056842,-15.877404996333793,18.16537020794465
1.3301400049217653,-27.59266991509461,-12.695301606417253,15.513736009740848
-1.7803480071585718,-30.5505115219078,-10.872044464011118,13.767036051278419
-1.4320057741493275,-33.19501222751064,-15.871744068792278,13.946006223810668
0.8498956453699901,-33.68449954027793,-22.70304610197715,14.691177761820832
3.4866997524608867,-25.840510653091492,-20.597308210553173,14.065923972185063
6.275832048278571,-6.118936947036745,-4.7009271585084935,11.421929224848844
9.439191561178085,19.225560369581782,16.81933497700132,7.8760837104935275
11.833504261302426,35.12385394239624,28.160390849967527,5.323218842452181
10.971400545043815,28.6338116925711,19.46294700405356,4.779341267615157
5.2977238023659945,0.914671961559386,-4.201173253132541,5.346586969137002
-3.598776294254468,-31.567785518790807,-26.88770795283001,4.882588461298702
-11.264388771195376,-48.619007485711805,-34.77311424718188,1.9703466374091645
-13.178915915607556,-40.54288737410451,-26.23281164936313,-2.7311587946381395
-7.8900769418297685,-13.401702790256218,-11.011902626267705,-7.109562795508598
1.8838964213906995,17.17039099120856,-0.6314705680209095,-9.348285280387792
10.991563217762796,37.098805755594014,1.0510523979176614,-8.977470374970393
15.205216089012634,41.789517170970846,-0.5322108441899936,-6.700427080468722
13.768284279095246,36.5481995801889,2.6440797930746096,-3.82664094113622
9.286115129552156,30.37855105467551,12.746363961018373,-1.8015346467201812
5.292010245844226,28.31862254036019,23.6092804734772,-1.5657853723578705
3.713263338109498,28.51032817748109,26.179249895320886,-2.910582799029019
4.1619148312064835,25.990159504331928,16.594284347727008,-4.648808448857441
4.965309012981477,18.740605318195563,-0.1920066035770166,-5.710435532580591
4.5133016994820645,9.694217240853288,-13.91312105403417,-6.055692978805837
1.9861737339541299,3.3081049119121926,-16.539928258473342,-6.49985410609623
-2.4368259994296166,1.0653711365815024,-8.146852176775731,-7.834659362107265
-7.609210599694065,0.4409008573974404,3.2273545328003412,-10.101367457740512
-11.743756977843114,-2.405743469095406,7.697610230792717,-12.288354367548918
-13.062954252905124,-9.095279040824026,0.951178776095813,-12.524769259164469
-10.587726606868669,-17.39213411719435,-12.873431232791127,-9.127038096742986
-4.891982028849761,-22.674083512123637,-24.787418142379973,-2.2486830347369713
1.503209294314839,-21.787557000430855,-27.475767596795556,5.384162667826501
4.874231889999866,-16.112041098679473,-19.395442817100218,9.913259793950699
2.5957196337233737,-10.154673904774238,-4.179540355390224,9.019337483076225
-4.333058895034039,-6.262658219028601,12.701373867743438,3.430283635412906
-11.126059756544477,-1.4647189710420419,26.638673528993113,-3.854530465794394
-12.435481827391456,8.861280864634594,34.47680754635771,-9.521454711094714
-6.574606268668022,24.13581335847512,34.33405915715288,-11.502303059868913
3.031027762062826,37.00845091472813,26.569384502023155,-9.608524146218643
10.43013971313363,39.57966003660795,15.378914011931549,-5.331001174259135
11.40291467599949,30.559305345420604,8.059686398455867,-0.8359868844507407
6.028793234450098,15.753019364914286,10.211704509915636,2.4047965143341705
-1.8673381300167562,2.1315113010393443,19.70321148058803,4.286936981507025
-7.488329943474209,-8.025169704557268,25.461454474774197,5.513209840152842
-8.07534086646408,-17.612731071930472,14.6984620272232,6.619463601496887
-4.281699353051028,-29.90393367589678,-15.437619400403968,7.672044660884921
0.8697927701395728,-43.12528866624608,-52.04360868076573,8.570889778031784
4.433390623132603,-50.08142405766948,-73.84758063171648,9.200411039222544
5.2903646178907,-44.37224194398749,-67.30178862771069,9.346855907384647
4.029446053560208,-27.618422427152215,-37.32664621519348,8.870573422848446
1.749594772522173,-9.631001056418606,-2.786809247560268,8.014820545100182
-0.7395158000831664,-0.3740162945621972,18.623770892210537,7.208249398320768
-2.905962524400464,-1.799872396728289,22.016019891810924,6.4700560063294885
-4.271646994415105,-7.701726714142776,14.650911059438723,5.354828450616385
-4.398505641191799,-10.572010905417933,6.678109284682694,3.707598185584485
-3.0143712449314592,-7.7562951282607475,3.0647294324737038,2.2409990147580814
-0.24961007099733845,-2.0580176146424627,2.367401154862879,2.0745270048568156
3.0309285920822644,1.4739529861133216,0.5822683446868183,3.691653120413843
5.256409963134119,-1.0904011365324704,-4.940545907196497,6.350069458175018
4.998971842355441,-10.424081849174307,-14.403197960010411,8.327040642015252
2.135666428991638,-23.157269064435074,-26.278189813859495,7.776098465286865
-1.8738261250802866,-33.03990456882107,-37.402874326273846,3.8967487189291026
-4.969461189608358,-33.845932442574004,-42.27407307399316,-2.201913258289859
-5.757811144733722,-22.13709759370275,-34.14354575234741,-7.9304053162585255
-4.041660494955909,1.4187531950661332,-9.593654939114984,-11.062942447179047
-0.6636650203712746,31.513222571352195,26.16903532615869,-11.423432364353928
2.8342591419048926,58.398418710757426,58.95736777333831,-10.677101093872544
4.756200964066493,71.03943819891475,72.94867046217047,-10.533566552324112
4.150577756804477,63.78518228094898,61.5525825751982,-11.337712668279261
1.5245776636012083,41.63465222913986,33.12020273752892,-12.188376619117326
-1.3851750553392057,17.872759091910062,5.802207671156509,-11.863662107154955
-2.7068844672017836,4.670890338337843,-5.372382169007482,-9.52190707890055
-1.562883180432556,4.578228767417048,0.7797254922051876,-5.1204609693278
1.3973643274454097,9.822596921247513,11.63331270820759,0.2989081270972711
4.24645129532852,9.102415103162985,11.518443039904486,4.936049751450338
4.896376989108063,-3.558222726250705,-5.264240750381345,7.383505266450492
2.732441685754496,-23.618806459006084,-29.389802251429067,7.629211957762146
-0.5454119586846828,-38.28478674319845,-43.5703577064984,6.807064515010529
-2.1274854014957376,-35.95760710321626,-36.27785299914189,6.022242752587673
-0.6582316167901651,-16.22595083832602,-10.84963406140188,5.544082477976902
2.3326560601506343,8.924366031341272,17.6783016499793,4.90297495352518
3.7345295937439764,24.857291819291497,34.829238900999044,3.374197886157644
1.6715436876848802,25.938623788831727,36.82854543483443,0.45722105853244244
-2.847004045396115,17.958585399699366,30.166565526369233,-3.55734694189862
-6.739599585867782,10.250932248023233,22.642510941773033,-7.211375859340459
-7.157154243094301,6.728700348382707,15.64122524881684,-8.417018503085258
-3.4521615551758678,4.381517707690822,5.120124495255159,-5.88985715041283
2.3883053615248073,-1.1476766252642006,-10.662332998423832,-0.29766793356294874
7.034200813542111,-9.739735043580302,-25.78077546354522,5.937502264633134
8.040935949885371,-16.28877051563472,-30.29151281039251,9.989546812730476
5.466536012570417,-15.421144404539152,-19.76551165930705,10.147918959949596
1.589561025091063,-6.85530146684258,-0.8306412153981011,6.7087171206199425
-1.0064945097664526,3.5691921693070165,13.272588639418252,1.785644582913055
-1.2996736266139626,8.291514010992707,12.909433957032707,-2.0602598041212197
-0.24114638303880503,3.8349016366770226,-1.3637737975114703,-3.5889882380356353
0.2416414075809026,-7.317063166429813,-20.665414680173416,-3.515332053839214
-1.2905570023065374,-19.786703288077337,-34.94516984995781,-3.328442110900713
-4.698041676653934,-29.247702200176676,-39.07736938164238,-3.595528533868114
-8.151116073936098,-33.458128781514276,-34.135873145499446,-3.636065884837374
-9.342879384847805,-31.24184367350979,-24.398172633256113,-2.7150824049741624
-7.418609952453738,-22.56036198775198,-13.439694803756586,-1.1452809381105842
-3.9411408229397775,-9.917294414173401,-2.730396672445457,-0.13207366843186855
-1.6968869205420702,1.81632125440479,6.7677609138840555,-0.8276856767900039
-2.246502078567604,8.511914476960676,13.004320528731132,-3.563766995138535
-4.511044370418958,10.18827253839974,14.18139552106202,-7.542534473946448
-5.660451500376922,11.234099121404332,11.832647161760566,-10.968066277586207
-3.391112582222446,16.9889225362636,11.2769648133875,-11.840983127494894
2.2929454039658603,29.086473835703302,17.31137124964993,-9.224029197049218
8.9580887193523,42.638302926428494,28.558362713525774,-3.9179606209243634
13.243720236321476,47.842990646170946,36.509704298548336,2.225321397571961
13.073976045574035,36.504265905117904,31.53908612856195,7.653268291043103
9.130578041651997,9.397409345672708,11.22093844163117,11.786695424840605
4.37811500197353,-22.38762597442801,-16.621621461909342,14.710464772875572
1.845926952023267,-44.541764602232696,-39.00938387822949,16.609014521667575
2.4140691354565984,-49.0538598541278,-46.291701613520566,17.414569081977028
4.331457982059693,-37.95122601814857,-36.917254766003616,16.620206753931107
4.645526913708709,-19.80137624195025,-16.217266171903447,13.49392685997963
1.3828607196959906,-3.9859205397550803,7.452673123876806,8.00005331900158
-4.858479007508812,3.2466174132488677,25.633775111981564,1.6783903174808916
-10.870276848638754,0.9110654090961787,31.72967361241035,-2.920281242080838
-12.733884152865315,-6.322576810728421,23.487270370789886,-4.227550618365301
-8.781124118385595,-10.966855317220022,5.234249653621742,-3.08819011961032
-1.350718152237754,-8.154617364485432,-12.992664197314907,-1.9677586119922312
4.5416689030333925,0.5812166566723467,-20.81305184173331,-2.7046385186704063
4.9039367955154844,8.66619287788796,-14.484804176561989,-5.018702418403878
-0.19110229609178236,9.894269914973439,0.3093564740795002,-6.973776455978916
-6.729025510610537,3.7830472037921115,13.225086402092305,-6.797918256188925
-9.821552617114714,-3.068990155498906,17.783621806324867,-4.651016552101066
-7.2984024458111,-1.6032261372907988,15.369070104242178,-2.9938313146265987
-1.2332008138628916,11.290389985081926,10.98288141807355,-4.862960927486922
3.7308993502984027,27.837569087047054,6.403455129045102,-10.955428652055469
4.157156529243407,34.50967385892243,-0.914098262859062,-18.0899413772718
0.7210366016060547,24.297747592367294,-12.314929132347624,-21.01808910920334
-2.4266109726633602,4.202681722941553,-23.033964367328874,-16.409181478994178
-1.4685792181105393,-10.444438766318957,-24.3333617351447,-5.455762491345451
3.6028284272868394,-9.687043865641755,-11.297963593620421,7.1055551946882485
9.065778756029943,2.612843441359626,11.028899706215196,16.28932970106626
10.7920319807597,12.94043814521856,29.331004741570897,19.601640689529408
7.599530022838829,10.031510962182724,31.16524881464191,17.705326274789638
1.9204045554992848,-6.075284577147561,14.691050406575181,13.356029502973328
-2.294545957989472,-24.388956583538402,-9.063923810222114,9.540236135982587
-2.5577076252173017,-31.557023503194,-23.78468653584005,7.745369379159778
0.4266233262319659,-22.141027245108486,-19.739348213199285,7.38372881897035
3.526697524070163,-2.982357454343524,-0.9998145159923555,6.812423366061989
3.9864328711490304,12.049971099068808,17.283332155749328,5.008128195025759
1.9623026320224537,13.033579179786107,19.579138750548434,2.3436788532424453
0.2891668874870689,1.3285730326428074,1.0853327439596017,-0.022949208984847914
1.4538061894071654,-12.95187207483269,-28.627771152913763,-1.2815934182399407
4.753238685852493,-20.010858842110594,-52.0199582129061,-1.6550422711817594
6.6365541075450905,-17.031978485445666,-55.25014134562531,-2.3347375853999197
3.9929324989164257,-7.571874499489566,-36.53872494600712,-4.673585641435536
-2.7927469571298276,3.3984461217475914,-5.608851275398489,-8.872347485681612
-9.829912202936956,13.244140053957343,24.2081532426764,-13.14533751646424
-12.684254210330709,21.852258953658726,44.35704917771006,-14.58587377681896
-9.780713537140427,29.486153646681274,53.898329610634626,-11.46485148395279
-3.538423037701456,34.62876631969012,56.156256104344756,-4.858483132683026
1.5925592515401061,33.79662053712564,53.40332549651681,2.0730989805948568
2.5496673009219117,24.02104218936073,44.47048974525052,6.36970896471975
-0.31463782051063277,6.185528726527324,27.028144639838303,6.934709563337546
-4.194862066751664,-14.0859810289767,2.32901114011544,4.554429537021845
-6.601106702555661,-29.20642468627653,-22.000021455249836,0.9476804446079238
-7.174380668228953,-33.74126998229065,-34.72857934057383,-2.260142970201479
-7.110351399068124,-26.949987246236812,-28.801947858418263,-4.293580965409174
-7.366398385958192,-12.998875025720002,-8.185559909047383,-5.397556942627255
-7.698470413789356,0.8251733957662791,13.27285899139409,-6.162263288164636
-7.125042203079294,7.813790804910618,21.486952257573964,-6.595493908895858
-4.902005038313494,5.963921819278233,12.18285005540394,-6.0655558855343825
-1.1235532798012695,-0.9666045400593933,-7.51744650090995,-4.229825780957814
3.2331294742447954,-7.074320531155546,-26.331262122823098,-1.7288345520532626
6.798461181521237,-9.135130646015217,-37.21155930566312,0.24034435275115576
8.701003615401193,-7.8078806206746885,-40.11740128629723,0.8683978945847739
9.17813169736063,-5.109871878157591,-39.04281487911124,0.17242401714286953
9.136217636487542,-2.2959450802385373,-37.4273899328994,-1.133406565232025
8.96684329830895,-0.35197788517118755,-35.486342643833325,-1.8859431524094803
7.961424405625603,-0.9442241923633908,-30.793408547013247,-0.9305045415834142
5.103034354594973,-5.4769970019915775,-21.443775302503152,2.0283750664360953
0.43741498066030404,-13.302618620273966,-9.121723194815026,5.884207768830297
-4.405390864317639,-21.494609884261735,1.0272474744396998,8.79436814643246
-7.072616217779525,-26.501838242407334,4.040918546290752,9.627205207964057
-6.0654771635410185,-26.11181251233277,-0.8745100891981245,8.71778705758227
-1.8977373688228822,-20.503624082441693,-9.387089313801534,7.303737929342739
3.0301467820752173,-11.995968578197731,-14.482464000950229,6.481964989821955
5.919348885567775,-3.3362641756696836,-10.171775978331565,6.616730403064477
5.423569289339391,4.542809583976661,5.5737171884270245,7.247222913555366
2.369214219349963,12.80414091354866,29.37451654922486,7.327910214433739
-1.21380053541441,21.8815942020539,52.87783071548847,5.939704800366822
-3.6861754149291177,28.792339230384556,65.95620829944434,3.1804116145085795
-4.511563383716369,29.054119281509642,62.40580697023125,0.2536947937533252
-3.822940040600863,22.125549151412052,44.71636656869902,-1.5879524659544881
-1.8240431713658762,13.712354223749827,23.25473535947195,-2.1064670274568007
1.23210919717112,11.222348578276359,9.247849789780794,-1.9393613138144306
4.7547118067703655,16.93128635411233,6.9576505617958615,-1.686169925200967
7.75574435212975,26.008811525010362,11.548085015854044,-1.5544760289847928
9.098744814293225,30.710683410402805,13.944896498568797,-1.7889567188470743
7.935813453815234,26.233262521354316,8.2310171160091,-2.8761166844719446
4.285682642849672,13.944979363725237,-3.998470555481845,-5.044102683748705
-0.614197117852289,0.5703234470959422,-14.986402703877193,-7.764614886476496
-4.8323540387889015,-6.4649313724227335,-16.772556926047056,-9.884923255204496
-7.043042858797145,-5.178296248529286,-7.744587592552161,-10.127290224811029
-7.347183514275892,-1.4071846284275258,5.168748405594268,-7.603124662983378
-6.655403604874749,-3.7722304644136244,10.995160174166468,-2.439514210801386
-5.424741996155995,-15.119667763326266,2.9603199160310636,3.731400256341335
-3.378484419109138,-29.229835589240185,-15.969750826157846,8.305573302569838
-0.4669178037298177,-36.44284864491548,-34.85391635685691,9.413590438395946
2.3557983601887145,-32.35485685898393,-42.723689435029094,7.347797491400514
3.634202963030255,-21.24229800909029,-36.63934466741066,4.186943556489172
2.5967644962952106,-11.996222576197077,-23.413872984631034,1.9901510629168704
-0.2443029841013493,-10.867149557754631,-13.438239403924246,1.3384558353676246
-3.464725742125984,-16.663607185217508,-11.818822527863178,1.3005305472018351
-5.574017189660841,-21.74149754956409,-14.70111005707348,0.4580071212549874
-5.809816968198776,-18.447132479670792,-13.959573516078972,-1.841571544116104
-4.529242384364937,-6.319579102703701,-5.549562154718072,-4.695777269365334
-2.8864795324545334,6.5882250806094875,6.396249969304622,-6.02966425148458
-1.9100804551183288,10.523966407177097,13.32142521880075,-4.320325049474552
-1.748997032914032,3.2025284228716533,10.251930398741592,-0.35697634301498377
-1.7400233448157993,-7.420499767940436,0.8406809492311184,2.92350977809312
-1.0307796607852775,-9.48063837758372,-5.236504267181673,2.7650298592551663
0.935202947983167,3.13577432183037,-0.6690754398973241,-1.0768929553292799
4.192359940655971,25.783434531356967,12.563707569319204,-6.200947781104759
7.995373239041781,45.88170605006062,24.147475389085475,-9.475084881371302
10.747571336045537,50.91589716438248,23.70729821491551,-9.090882996504233
10.704989253178493,36.33521898892905,9.248517801469378,-5.334189378251337
7.273153885888009,8.548528607341106,-11.144510399744144,-0.011747632842067332
1.7621916082476892,-18.952846904819175,-25.056703166033415,4.853328158590607
-3.192068705943066,-33.74596888650544,-23.979985820444785,8.238391221592309
-5.099160123581416,-31.05803279939533,-8.283631202327829,10.353680303548586
-2.9541536328630644,-14.66392118219062,13.754292304803078,11.708717283252158
2.1997647576284463,6.80998301004613,31.517787265248003,12.13921211693606
7.69944640112363,24.28146622080446,38.15292922943693,11.036707742609405
10.626366408544344,31.218900338054826,33.137860104182444,8.390315330166235
9.458644984208497,25.455358925150946,20.25149371065129,5.0878956174405054
4.830892665969761,9.666129871466142,3.6867015882554783,2.0265473161793843
-1.1971895625161009,-10.11712446297491,-13.683386578817718,-0.686112477054956
-6.579349511228106,-27.044761927970637,-28.68532515574918,-3.3969733314625077
-10.154827716706354,-35.349631070076214,-36.015614806090056,-6.08899412486471
-11.654244027528382,-31.803157208708793,-30.230632600740734,-8.244100178736858
-11.465320560559142,-17.777485273060993,-11.079999786135124,-9.377743161638527
-10.457032907748102,-0.2549334502023236,13.388778563428314,-9.423771642162372
-9.526129670160206,11.408367133431915,30.542933921558713,-8.698065387832084
-8.902785962692208,12.011678746807336,31.573765428688525,-7.752725670584904
-7.98411675467184,4.381537328428153,17.6272408182829,-7.156655387076823
-6.082549411297547,-3.466065100261385,-1.2028511441475402,-7.072783615414937
-3.3186481891016135,-4.927918800862936,-12.852552907189173,-7.027478800616146
-0.6635126921159019,0.8762698996701237,-11.068670637753995,-6.357383296907639
0.8428411034527471,9.547385819762942,1.0505891159297813,-4.894038661548706
0.8782232351582263,14.81667924643678,13.835663897931019,-2.959554381987225
0.07167881382628408,12.537644427764192,18.081898824950127,-0.7406913754371748
-0.3497201623489134,3.476694760219031,11.15650942007215,1.9020411954168583
0.6381072888540456,-7.102604301534999,-2.316003934240289,4.839074459394921
3.0089389771705717,-13.568997857544046,-15.124303871173797,7.259033215978316
5.577831106348212,-14.4399571879835,-23.122758929454672,8.185711307632436
6.990799830863036,-12.757382059465392,-27.314868265307318,7.29352146659703
6.913130076490441,-12.17887692868421,-31.249390023252154,5.082098898427283
6.074188887846036,-13.454351161492621,-36.36622393205392,2.5199850918721696
5.130548051733358,-14.809731775963773,-39.43652879042822,0.7422803690515722
3.775064389706829,-14.58374235128647,-34.59004081194753,0.6846700926387321
1.1694709377814734,-12.49455653435463,-18.554202710226647,2.3323521680109547
-2.85643034963634,-8.892158766012294,5.329728455408527,4.234460146940248
-7.165219841323769,-3.939673880803575,28.06554587661445,4.293593806486323
-9.79624742150468,2.4031966763971617,40.63857329942827,1.4746735579686563
-9.119262916387532,10.322915267712318,40.11400953110044,-3.2201243345812465
-4.892105489832102,19.99895460391555,31.394752743338163,-7.442485431607104
1.40882138845235,30.534214320360267,23.031161267219805,-9.054467724206644
7.29428069741881,38.693981605811935,20.172122445267814,-7.262853026628179
10.623875531657347,39.52328415530041,20.30431395225088,-2.8814721512374035
10.60836702850659,29.155948970168943,15.441246772921552,2.149528933947813
7.776050899355334,7.664647575343223,-0.6926142651377393,5.848495848038904
3.3385085062955357,-19.79931157840129,-25.949596241282297,7.370084042468353
-1.1892719367477855,-43.71020679470652,-48.931882151351125,7.289362449606059
-4.091339700464972,-53.16554355755108,-55.58168359700291,6.675074002669218
-3.9502791682932146,-41.67932009135693,-39.20174739616107,6.027270352904028
-0.5864628811854586,-12.820574335574507,-6.302161219003894,5.262807186262314
4.493939449491675,20.10317854049898,27.12658202104562,4.44659065285997
8.784556846715462,41.93487584937449,46.51239658715457,4.060840096508286
10.080068201581463,44.85827651555765,47.83228939734787,4.518743671676117
7.4977274869942905,31.243659440710147,37.711112569296496,5.746022468281484
1.9119058750261824,9.477091760406305,25.570039379318874,7.308839322104814
-4.220018538589059,-11.847666200616533,15.521741624311856,8.666957296696221
-7.881325668916882,-27.157995381432997,4.8567448996942995,9.242716326274676
-7.203124537152246,-34.39028030873552,-10.496998014264442,8.603332585165914
-2.6764539127845124,-33.85724339928919,-29.19566597881818,6.822413692246485
3.280596857525662,-26.381875515769817,-42.94289089950588,4.492316279660363
8.005309053932969,-12.487784010494641,-42.09209001270465,2.2218278729514704
9.970951903118653,5.873040359030888,-23.94074208315387,0.2788323191413626
9.029850073427612,23.103522065955474,3.3663290358806437,-1.2074873655243732
6.039931417738943,31.500523728835677,25.02969139612575,-2.048127168043128
2.498279243648629,26.87698088002441,29.122429027252785,-2.3002204794987384
0.023673812540719097,12.717525857933413,14.46041056539021,-2.4983701376623038
-0.4799032230994742,-2.1521418777540005,-9.006517625579196,-3.108012275299375
0.6136092066087058,-10.410440559972109,-27.48729869545624,-3.778356191849613
1.9929287515606433,-10.983462683374748,-32.615875671476246,-3.568013471202181
2.3387286709585253,-8.037650628011619,-25.589018608688413,-2.0591730254690104
1.0037719603090332,-6.467072299025582,-13.785107419000285,-0.01153775370881432
-1.8525822852218428,-8.171510032665376,-4.060044456820058,1.1610400896220228
-5.41082009551815,-11.325259151075151,1.1622837371476924,0.35802979372912563
-8.516513676557453,-12.368251046977225,3.0354975053467323,-2.6811523770075913
-10.261850560816915,-9.118185308567838,3.5137472364364353,-7.283714544216264
-10.523235808851268,-2.6435504413102073,3.9083676269576224,-11.964774960782867
-9.929652223695744,3.818576066279093,5.1616048681605795,-15.009327795749176
-9.267579313781447,7.8527199926083,8.246381329578508,-15.487582173769114
-8.908370434161386,9.5745803325601,13.613411786033458,-13.830949489170147
-8.691076826402021,10.48634810825206,20.133414370630693,-11.326512166016853
-8.233504839984972,11.258132589735085,24.770966003868192,-9.18458276153041
-7.496199952501923,10.785388389809903,23.790591937342036,-8.197265496554568
-7.257351806382058,6.899523078016419,15.252049782800702,-8.850184656153505
-8.775190276663272,-1.7139140638918409,1.5689028857868577,-11.045162165842308
-12.29020323448918,-12.773128271669625,-9.902090471379859,-13.53504953997526
-15.591793930081497,-19.13447631305683,-10.207745289516247,-14.13344219229634
-14.783862031690806,-12.677322274185178,4.472108766169665,-11.0646221423192
-7.588153200886458,7.504802466740694,27.529571443481835,-4.455462547534275
3.61644022365195,30.58173543907136,44.061323458415345,3.2355542620297477
