TP9,AF7,AF8,TP10
-2.6493373063104504,-2.7119764441050997,-3.0597959152376646,-6.554639145175368
1.5200536775675193,-52.656886022055495,28.31419532388378,36.015388028913954
3.064797190356457,-72.51074434020282,41.98940473113937,60.68908141263082
0.878478223198097,-56.034413723615366,33.2954898332418,61.61819735625553
-3.876516845656359,-23.074354155935644,12.715434673213805,47.40687955411433
-8.579350462864394,-0.5521834629844271,-3.7868038949719685,33.02971755106819
-11.086082205276462,-1.5267610867930734,-6.882300920040491,29.255501580475812
-11.157280658484977,-19.481779365010084,1.4404924044349006,37.64836218792341
-10.076295055584778,-38.263221862680915,12.507130784775601,52.593181681377075
-9.046652768924405,-46.02505157392461,19.0516566801666,66.42425747110578
-8.121615354954821,-42.27835766397801,19.889734558496535,73.69617645496197
-6.499360139581474,-34.81230847766829,18.714465345205763,73.0626059879497
-3.484960556898226,-30.659946803554774,19.401666803596832,66.65175012392686
0.8216386017471922,-29.30218585573042,22.179715105850722,57.62301729544566
5.353497681307633,-24.448131464724653,23.713129011139763,47.762421618546306
8.418446419555163,-12.631220240887972,20.740500626369926,37.01293249677565
8.656261890014752,0.7360042624620892,13.721729890512425,24.75882883248566
6.174812676618184,5.235241441558499,6.809656723466458,10.949771528145105
2.739995890421953,-4.1598193864073725,4.0346356172735724,-3.885200111729383
0.5021447381577129,-21.14491277774341,5.5323830848395605,-18.834440332923194
0.3325598780060776,-32.91620510328362,7.581848885941842,-32.373010338579036
1.3574941893519763,-30.705032440805308,6.132756143732408,-42.550364612022456
1.9780648857117564,-15.831970168423036,0.10253290021181434,-48.15713283389932
1.248903481065217,3.240152679347731,-8.37945055485409,-49.69807966782262
-0.5007237136397452,18.401024048256676,-16.090650953616418,-48.88322486317313
-2.0344458098336062,26.27658698271645,-20.590617978321415,-47.236150399148244
-2.211730539661722,26.274531208529663,-20.465119708062918,-45.34549682239088
-1.0041076765860428,16.273524332438022,-14.829318919008646,-43.03556383354007
0.3338224249012846,-7.069563212162058,-3.687366132979513,-39.6442105140805
0.378281973318911,-41.62105300928552,10.690367859060428,-34.22843658332881
-0.9658200769042962,-74.06276791572418,23.142064543842903,-26.148916892201445
-2.2483067325495147,-84.69598559914773,27.613891860628655,-15.696368939370418
-1.946303084431896,-62.11813057343577,21.230843449214834,-3.861216698110688
-0.029968509677522976,-14.745860928198521,7.142581562811457,8.496125813554062
2.0678325524140373,33.09998960514589,-6.94094836946161,20.759237635192534
2.8274397101837065,58.25067293904218,-13.947112643535773,31.77145627909297
1.8010131869746597,54.10025671391503,-12.138378177676838,39.67295689228021
-0.25953742447058303,32.059062282203975,-5.304016970941269,43.22723848480158
-1.9196867476646686,9.862598913185767,1.4362879532051231,43.25349535565474
-1.8133121816860058,-2.1127431871087823,6.040571311925061,42.32553848361312
0.4395927596338276,-5.514909588486591,9.99582576480337,42.88803747114325
3.6509667585125314,-7.4125528502808224,14.803044775786578,45.51866106497166
5.638912997436517,-10.211946228877462,18.648536724448395,48.543307564525115
4.790832798969657,-8.656633308970328,17.176529455104756,49.05038060091541
1.2413413876974313,3.4018294121895947,7.781409168702366,44.865855375803626
-3.311822110839038,24.76425075382653,-7.065428372055736,36.529874393741046
-6.664111348326982,47.00995551541698,-21.004335009984285,27.59285297206054
-7.065198609433337,62.57931185597115,-28.404000785696113,22.289947938254645
-3.868471159138411,70.80838019531593,-28.012940847951022,22.166006814370586
2.021983226358183,74.8893037695625,-22.52602094269406,24.669495792324295
8.337289176501518,74.31248462330478,-15.138344709352294,24.9343920138606
12.630520397412472,63.063908251379495,-6.958906473498596,18.98231060992462
13.695164310637898,36.95829070122252,2.1117610408153933,5.8608025577096265
11.942140269545284,2.320190140364473,10.471248692497273,-12.176300361206158
8.620288132468776,-24.437633466995518,13.870118421529828,-31.008783365545533
4.977727880944493,-27.98296685009348,8.423488766707925,-46.828891587708185
2.02541738959991,-6.631224959354024,-5.1222978665770045,-58.121739278862556
0.4536714487672485,25.098494796262763,-20.552907774000687,-66.01655622645401
0.3314287344807273,46.755856184187344,-30.219883231901278,-72.60625730663365
1.0557793014332362,46.91397070066109,-30.529434896131473,-78.80903640745392
1.8762283113079867,30.82358380820233,-24.21115671485512,-83.73687499720104
2.3959625875420936,14.858447574141087,-17.773551250430955,-85.71189137436754
2.4791529674215056,12.664031854757324,-16.454283037998472,-83.52973657487797
1.9578160811964247,24.546277709487818,-20.54334900352348,-77.0856273418466
0.6689506739639837,38.41110269574602,-25.745717510482294,-67.60846964726046
-1.5166282771165165,40.627349116125885,-27.35839749852267,-57.644881466111
-5.06416833201284,27.674683497399517,-25.081493552658706,-50.34518710911403
-10.848036758071846,9.820925803357818,-24.288153228404337,-48.074818481389116
-19.130619676363928,3.8421838803401855,-31.857933166055833,-51.29136444588541
-28.312885095252497,18.549392861379804,-49.13121450625332,-58.39964093024187
-35.285856458378824,42.9339849404684,-67.80345361407309,-66.30405495641622
-37.561706188962425,48.64313974222813,-73.42749501778275,-71.22622431978856
-35.12154710297891,9.925782850745222,-55.43667305608411,-69.90424841005184
-30.181841055095735,-72.67674787460531,-16.313080503597558,-61.02040644731664
-25.385287454573447,-167.01119330368618,28.28598214486177,-45.80072640727994
-22.178861697429173,-230.3795116735452,59.69406161663541,-27.032649544434058
-20.306716299408016,-239.64918431763604,68.77578699781498,-7.35924910594122
-18.25945575987896,-204.69364528887456,60.7855744613977,11.614098594138042
-14.3618460934749,-157.53951487771562,49.89853658621337,29.117717126481207
-8.044396359682885,-130.79133516780306,49.35375061234747,44.88436732497695
-0.3310896247793757,-139.98727262025352,64.0708199089113,59.19722164582017
7.07367965135067,-174.30938435928078,88.06761250437778,72.83635636984208
13.225866962384698,-198.74013465312092,106.84435801773647,86.63517259520036
18.34446924404091,-173.12002351813442,105.16386409585823,101.10960282315271
22.894752509458144,-81.90836505068765,77.54754796619353,116.39462572076063
26.597765317804264,48.54059536728441,33.81940452393026,132.01876167278428
28.39731968756918,163.70899100475333,-6.337661659789681,146.4270909977845
27.234812294721966,216.80879453897143,-26.396917234308848,157.15554216321567
23.09656274623885,198.13714362937077,-22.95429962898706,162.20597224202143
17.903747251145347,137.1516423648294,-5.2770138913920634,161.52018726213888
15.369888199668644,80.06621481984489,13.209701278411208,156.89977695252446
18.98015635786353,61.582885038244285,23.313908477816113,150.3021113208405
29.07509968057743,88.64040880828283,22.795424929539262,142.11512257058618
41.79827430923811,142.81374130310812,14.179983618045178,130.75426344302753
51.38213019392418,195.6902537922017,1.5242754758053032,113.5412546238044
53.857208159026754,225.2465083331929,-11.503318552095253,88.16153991158912
49.00559515124523,223.80785897826362,-22.260387172942973,54.10275326166869
39.59944740975501,196.21152795939472,-29.14742826733805,13.406739488126902
29.38707023344512,152.93797605522357,-31.30997723178422,-29.886824107092504
21.25816699295587,103.39492179716427,-28.373726372824585,-71.32071518294111
15.985197487402734,52.25849928209457,-20.682182572164134,-107.40504867564508
11.98174854803678,0.38097427943302536,-9.98404597059664,-135.98449101457342
6.676349962875704,-50.18914989221561,0.22290346052471058,-155.92246934687452
-1.2131027953612157,-91.57525644577053,5.525601565204296,-166.71555329908836
-10.556766788729247,-111.83612872945729,2.6055124000090806,-168.14031813809825
-18.864659362559323,-103.39816493032666,-8.647027178755431,-160.07753087835943
-24.159246235572603,-70.55294552632583,-24.426228320209482,-143.03638678762096
-25.82927523802896,-28.493076247877568,-38.52963023620859,-119.21758706599677
-24.398092129920222,5.151952537765537,-45.41686114318888,-92.73344857970066
-21.24829783074994,18.85788053614496,-42.9435268987595,-68.0459368436207
-18.46613667287742,10.52901884827767,-33.103585261510524,-47.80583661091985
-18.18820039895472,-13.980565385201551,-20.609841900360045,-32.21379372927338
-21.60196188102486,-44.43777527256236,-10.603374366577487,-20.305627811823708
-28.47265137512269,-70.17578976081927,-6.854074718556858,-11.488630383357538
-37.36665976914723,-83.55613017353372,-10.720069670271133,-5.833343908675754
-46.01477342566743,-82.25828964502469,-20.54004412385686,-3.3205072389974832
-51.82148437539435,-69.94441706863422,-31.817847705214124,-3.073584842515854
-52.987559874167395,-54.73029398713119,-39.05035789089732,-3.1817178888388096
-49.71507206154642,-45.02727761882368,-38.80417566024547,-1.3174645094739925
-44.10650413235518,-44.45993925170523,-31.81734407871342,3.8378545735033103
-38.53416412358172,-50.00782798894152,-22.133171518465105,11.13053429040924
-34.01235499225828,-55.57444900325178,-13.876446540152832,16.96347974470313
-29.896234515447986,-57.378602348099896,-8.45242460381556,17.45743284829736
-24.635355949942905,-55.4509093273217,-4.342713835304799,11.207653517805575
-16.819121640855357,-50.779070583417,0.7695615261574272,0.21743002050982183
-6.376413698919981,-43.19500526624318,7.5445693716616375,-11.75457660554557
4.505855486305743,-33.04224959968841,14.13536460608023,-21.883448107838166
12.115453750834329,-23.326233104040117,17.57946380493477,-29.840110331887377
13.997511718992182,-17.977914289570762,16.358010155430655,-37.23283064639161
11.495510044154246,-17.505509642024503,11.9314411290924,-45.52379889610262
9.155032382354932,-17.333141415269214,7.752221486666663,-54.11224856508491
11.206409603689915,-11.125446338263295,6.591730895263494,-60.32031608582807
18.464435395834265,3.907567599016947,8.744231027885876,-61.481508802073506
28.219501907492695,23.805627271266747,12.774443810066842,-57.1106158607148
36.461371732008274,38.565763128282065,17.76906688619659,-48.791384092387474
40.19529374914016,37.126734808268836,24.396328907146994,-37.9530434762424
38.573999329074915,15.499615770495188,33.306207602530414,-24.2563795291991
32.785099664779594,-17.114676724150993,42.473399697276314,-6.513723878988085
25.028671496184415,-41.467052494876945,46.87984951070092,15.07826510358279
17.3157405429288,-41.297089534971406,42.05532671357001,38.004334098051444
11.03129939005933,-15.933361120259608,28.67351903576043,58.61115750426608
7.228324850085981,19.580332878416243,13.262956663306015,74.03311386471098
6.489705534479281,47.09356427328936,3.3684846628331697,83.39429885280411
8.008122715778285,58.57104892352439,1.40362349728309,87.90464396481623
9.388283172519879,58.490513321815214,3.349611492383769,89.99643124439403
8.352711569762743,55.51824160194107,3.6514532269170714,91.8406910031144
4.917799165553797,53.08910697169112,1.1187465214167738,94.15433172413934
1.5524476883170835,48.10420871981105,-0.3751102448670575,96.28968236793328
1.14469912394812,38.517191302002644,3.0672849145813053,97.36428391041315
4.970388767656153,31.227623467006143,10.146639846807046,97.0171745013907
12.10903406033095,39.78779882119028,14.530518871112408,95.01694535785396
19.745480752091012,71.04211948877169,10.250040638439998,90.53850394383412
23.841035605874186,113.23173340056886,-2.9225078111032685,82.2124202217464
20.849442735208687,139.87002281608778,-18.90768670501497,68.90878693214415
10.375722513145552,129.08282619174093,-29.681105762656486,50.55470985318328
-3.461810342238175,81.91933743915112,-30.742092208500853,28.696369132561053
-14.002892395905416,23.092272996774007,-23.597856955074334,6.64421823473967
-16.25452540229235,-16.677572012935922,-13.822184564109747,-11.461163575896512
-9.994192971468223,-22.286936205777764,-6.552954389517296,-22.894041526991984
0.36567485444069325,-3.535887779407467,-3.094090383404196,-28.414380401425305
8.569983722061206,13.711664634282204,-1.1503001723148856,-32.00269069023472
10.033802432367288,6.933674762789182,2.0902620552434263,-38.048236837502984
4.214594825863098,-27.47174857427473,7.110842496922079,-48.30989908259887
-5.505874313713939,-73.00012571421453,11.622455072236152,-61.04546314878971
-14.428838150532773,-105.46897081855941,12.189268507017426,-72.49736640342833
-19.520305363473057,-108.48012386238412,6.474865954305484,-79.15616843461912
-20.18233337874289,-81.05127272063672,-4.933983620442378,-79.31093168408682
-16.810769232656327,-34.97223955657321,-17.98446515882917,-73.38528729671698
-9.757946874595689,12.555220323957643,-26.738280583362126,-63.33004787258299
-0.20639663327886557,45.32649656623833,-26.6869156947453,-51.7213331777431
8.848251159648132,52.991413002061165,-17.63098379138942,-41.10762899282642
13.773840805627279,35.39388493873449,-3.954741868105329,-33.53179882678971
12.777991396894414,3.749530660648811,7.830776966707089,-29.818862593765004
6.909188530342263,-25.20507164590075,12.607578778242766,-28.861403556452466
-1.1392201812027942,-39.77053128126276,9.361123605700428,-27.826875976902006
-8.546687791287148,-39.77053353045749,1.7430539597268169,-23.56514436780378
-12.906942366519223,-33.141759121945164,-4.126458587452626,-14.15223151699558
-12.56615791580081,-26.76483979194072,-3.695985423978933,0.5234949194208256
-7.552791218221642,-20.891633912170054,2.8265072644626414,18.868385617797557
-0.2828744223105552,-11.68815356336582,10.67051876884641,37.6172366607367
5.144422489126495,1.873785285326428,14.038244333652276,52.23427517810458
4.963478306421584,13.923604155967867,10.279057152578302,58.74346956806363
-2.0874869376083853,14.549993508298673,1.6741225816715288,56.32997690104479
-13.725339316521737,-2.2659410207248265,-6.320315686225574,48.19087194277974
-25.153265833368366,-32.330258023219415,-9.071954767556498,39.287797149450554
-31.98490576492208,-62.577273686951365,-6.142378600341602,32.88684302648088
-32.98972210781826,-79.35183681060698,-1.4445406412555422,28.95913209702789
-30.110683948489363,-76.42709598816707,0.038235871173490865,25.29872454033751
-25.806098056722966,-56.724204141597255,-3.7270022869979327,19.6061245584616
-20.830272320512144,-28.648445487430486,-10.552570103677164,10.59165149304533
-14.878110872293966,-1.7373242333547918,-16.490752539090444,-2.295416201310634
-8.691975436525267,16.210250244272007,-19.455581625542546,-19.645957187020798
-4.471720777275588,21.174709999275972,-20.497620987164105,-42.214860852232974
-3.991744608021227,13.809414663565622,-21.82468142105574,-69.73635316142885
-6.796269603342017,-1.9827417465755404,-23.908102985919392,-99.13249378559473
-10.322231112773023,-21.577798894536645,-24.58373969765881,-124.18069150518869
-11.38464014543188,-40.554179587893145,-20.815309782763805,-138.11870135470951
-7.709082711854777,-54.06343946596473,-11.377836426277067,-137.7926888105015
0.9766185054215443,-57.337466262316326,1.7438560363410869,-125.78167443360088
12.603499131122218,-47.96322631159169,14.194606261558977,-108.42028913977552
23.758512022313724,-27.355160304846702,21.695489686514748,-91.41925770407602
31.641667695220924,0.15038549920383085,22.45339114992378,-76.63409227979051
35.30383978166287,29.1157799411777,17.878077565833863,-61.90305588348294
35.21855320283538,54.3003335593801,11.208876961882515,-43.3030893768582
32.31519352745565,71.88073457595813,5.439164353313659,-18.13557984191133
27.83697067509964,80.48346193969631,2.3801464139803454,12.88446345942155
23.510974323801012,80.42684976249653,3.1123667425515524,45.42985096706608
20.834881155638918,71.57487158435823,8.375260025411656,73.66624769641
19.980067927893582,53.489588668074795,17.802958118078756,93.34749622139354
19.804884588333916,29.427417967566004,28.716714658368364,103.72116893183306
18.881908061237585,9.091098422128985,36.15006133481177,107.14625651093085
16.042918107421144,3.8704867529429863,34.972997000406004,107.13821076184186
10.241204480102681,16.89329671411123,23.227952779215524,106.23181215306612
1.115208466018521,38.343995516843535,4.359202455313512,104.69306550919549
-9.640734789747109,52.38741784404705,-13.877029243747655,100.80924430877394
-18.191514567670755,49.615749474333604,-23.792748407845533,92.93194058420163
-20.937512551826256,33.31603952194163,-22.461961005194958,81.89519498179114
-17.32863272456492,14.919684483080118,-13.081718463158227,71.28549249925685
-10.262422680424962,4.2081194069222905,-2.1100511995846394,64.60401783605487
-3.8632657928147407,2.780955838691021,5.1696703510114,61.768409044122386
-0.8008983979900874,5.001370870816136,7.223498159404025,58.63982943442253
-0.9523940161381186,4.59772417805254,5.794156761251034,50.395823661204425
-1.8736203331453192,0.9126711088603652,3.6575926978030178,35.67347862280301
-0.8552887193143625,-1.0146692951079934,2.4717315619952007,17.723925962988584
2.568090796899573,3.4741009906895686,1.8400399190138261,1.7038457934032074
5.878029979216395,13.106027277672657,-0.08182875063622654,-9.468939463431433
5.824405257390757,21.801150116902633,-4.849289430349523,-17.24815913388306
1.6766790008535495,24.689100485250002,-12.10824549545157,-25.776080651619452
-4.032004774566224,21.770131958262258,-19.45764988867887,-37.69865722748442
-8.039134990027243,15.769031427614792,-23.958513780484296,-51.16263377428133
-9.219432949039682,8.06879646209457,-23.97222185118757,-60.88698055299434
-8.85322491917343,-2.0541569796043864,-19.88091474192379,-62.32503163797299
-8.635832163837337,-14.623245962976572,-13.474022192351024,-54.821770867681465
-8.891327804221358,-26.35161717742024,-6.845449238492,-41.0225202990577
-8.556215285849985,-31.413787462743255,-1.5986664572130231,-24.092346321942433
-6.634210024876355,-25.770253780828998,1.4311349228025483,-6.313759548847106
-3.804132087165916,-12.083057512975973,2.0861273056746596,9.837724497762792
-2.5919208261640536,-0.2959037109511685,0.7088754185958288,20.481651367581723
-5.26194643596955,-1.0767664214762984,-1.821137498134391,21.511714522066193
-10.888877451537523,-16.346816327560425,-3.9130681887954757,11.779374449366383
-14.942966928881638,-36.27454509236952,-3.5765218821246174,-4.655561400221748
-12.914212301621854,-47.35031142158157,0.40053934549724557,-19.829079996941747
-4.94709668008652,-44.67202090873458,7.193829963297145,-26.520441092236297
3.382994667293019,-36.35059340797023,13.964267672342082,-22.980406713060383
5.3474680429245955,-35.50970270979415,17.418738964456924,-13.856051238489902
-1.4418210717903956,-47.39398032422495,15.673332908416329,-6.288159677706401
-12.9588630807574,-63.261338400965755,9.176127879571304,-4.355217883346441
-21.346224735809546,-66.43318375499994,0.5749638559673961,-6.551394620934697
-20.027357599994225,-45.997565526058054,-6.133361100195802,-8.128068254437105
-8.145634061650933,-7.584916506419103,-7.233370180310808,-5.7844280397475725
8.434482918113382,28.056197942799542,-1.4826570677382247,-0.6442141445890062
20.67503755558738,39.33069264348078,8.469487462062117,2.4238712964246147
22.404966797990202,20.73380181340823,16.88882909020281,-1.8982964955303407
14.278810382274095,-11.505886531674689,17.838942960978518,-15.83191487359139
2.5458309538716657,-30.633911634047838,8.434128561294727,-36.7859502935633
-5.8169051165048735,-18.929583406106484,-9.267929792471314,-58.5574157816198
-7.277649346239436,19.506679015662566,-28.624181373720493,-74.9005701986952
-2.682196334803174,61.46893904249768,-41.12432379627643,-83.10567461461376
4.380527542428323,79.73845694399236,-40.562264382679224,-84.9384788454221
10.141195001800904,60.51080825252427,-26.515730587457476,-84.3716452592273
13.041558243361,13.025898572958628,-4.794692597884305,-84.14668229652959
14.687673948716855,-35.17788922145209,15.810535292991677,-83.80984482636526
18.200600536222357,-56.40797214916901,28.60213262688878,-80.3172800049093
24.96006317584228,-42.40520943936169,32.48635763958343,-70.44334906730704
32.88127495584677,-9.044078139002364,31.425345978190766,-53.27659445546141
38.001220778600334,18.49197604551807,30.32905455456861,-31.07937569170297
37.4907460876715,26.09358869262478,30.80317351434266,-7.7927769640997955
31.077610744956736,18.211546002513266,30.30954811996594,13.638796103707744
20.403563739549703,8.661821859904554,25.256386373512836,32.72046755350141
7.977555981937947,6.606237735281525,15.08296148079949,50.406985292368844
-3.47036373238772,10.033225575440712,3.7091898818497175,67.06313507350853
-11.824355705326296,9.288856997709507,-2.8947803704610084,81.76674336091322
-16.56048597292307,-3.7878882397526636,-1.1603296875619107,93.43106540789009
-18.774446398089882,-27.33241604016889,6.946204923428842,102.0080078215794
-20.050849279077585,-47.942772187383916,14.57308809751863,108.2623764351764
-21.444249296932885,-49.35119542005253,14.284213695400567,112.54782901035401
-23.417301166042357,-25.76488585272713,3.1652871493451107,114.01072775521574
-26.089133937518437,11.817857714503171,-14.947645129266594,110.93556179490267
-29.107050621192737,42.63915849789068,-31.850342646810905,101.90916006685798
-31.56776611961592,50.61969593839228,-40.269601344142416,87.04787737073768
-32.43334473641428,34.532987569702485,-38.19810377110533,68.459337717584
-30.914438836260842,7.538169499583804,-29.288716156299454,49.406507354311636
-26.40071878020942,-11.885630070342746,-19.552923645210072,32.605287283536164
-18.600112232142965,-11.39025314683038,-13.29227080683334,18.97303633596843
-8.378291718955548,7.863887296387729,-11.168547414342566,7.717531523646348
1.707986468524966,32.5508806981781,-11.162346913638075,-2.7110091380190005
8.420341365183058,46.983911389279505,-11.09691431194704,-13.803051403045927
9.812839571126057,44.420782518403804,-10.710904210241505,-26.48859885635663
6.3542625251093225,30.95596676682378,-11.801923991885191,-40.550731034340195
0.4552406152864292,19.54266115534127,-16.37118937403228,-54.216100564253054
-4.835169987227581,20.163316947563697,-24.393642184842083,-64.81020109599964
-7.2418659583547385,33.58471293842268,-33.28821204005091,-70.5041254565358
-6.51965690426027,51.03902067045304,-39.45440320430618,-71.73929438859653
-4.718333206659943,58.47872764900415,-40.168952822976024,-70.92422845409476
-4.5133039897788905,44.127183148595435,-34.314335315219225,-70.58383592689158
-6.557439468410373,6.917411132643722,-22.341058520095576,-71.4657975058909
-8.549088209649915,-39.922576558341255,-6.512126862690335,-71.98542885013278
-7.267032176002433,-75.03811269801169,9.001084527326448,-69.35579094453611
-1.538421303279528,-82.09569240460334,19.519153180991818,-61.641686306897526
6.792465324951522,-60.194944201261244,22.553170079552604,-49.19804669357761
14.415035595988323,-23.64791138641314,19.550136702716923,-34.18683701308578
18.837055082576786,8.320338340779308,14.820580339412238,-18.56049707784329
19.78560023436244,24.3224637993624,12.415443761745838,-2.6515463383448887
19.2574706890588,26.949851695306013,13.660548561975315,14.005568665377185
20.159814483005057,27.61196642502528,17.272989003953047,30.621042753984646
24.018190503843822,34.222769946349366,21.42969368005635,44.43420562081004
29.49844458493147,43.12991768891232,25.51016326556582,52.3403841578982
33.446190270506314,43.383836870460385,30.002925698110644,53.16399809788303
33.617608594357264,28.595768790199692,35.10533244907082,48.35679041021404
30.195685263615506,3.6581860892990896,39.61674720783613,40.774850222340916
24.701427218028943,-19.672243940529402,41.118557855480006,32.89876468898633
18.112874838406814,-32.074920769666846,37.29211228694662,25.853786382032165
10.518869471239796,-31.881206695146766,27.591935204900466,19.648243773817907
2.2028748634503152,-24.197253570884698,14.306310647959476,14.216658651652278
-5.5754289386006874,-17.110703953444684,2.112585675848526,10.265784182609401
-10.959983203164038,-17.34234657852492,-4.098914399339417,8.91466742900159
-12.59891612802213,-26.615924858189203,-2.116599514186083,10.276112678543528
-10.795124935147902,-40.96286773669466,5.875210809309296,12.57903954176902
-7.9427381122541405,-53.89160770089506,14.204841970510605,13.167985178892286
-7.32241277730039,-60.588808623182885,17.059915934437328,10.598161883890459
-10.519227964240182,-59.76946830965388,12.293999654172902,5.676621928800082
-15.7441434297106,-53.32409355599959,3.021359091194261,0.5274465271413938
-19.126625239547277,-45.44115767574195,-4.469417987444063,-3.0922566084409486
-17.97399231719185,-40.616102869939795,-5.310203768426373,-4.659458546277904
-12.852110294656466,-39.743897595545356,0.10926427964585335,-4.7505684627935745
-6.912696420117433,-37.51169934158615,5.966376031254703,-4.5882877862223195
-3.7079114969009863,-25.74075802780046,4.849856172487056,-5.546673708781948
-5.189411222561667,-1.4485820445078812,-6.748035198517922,-8.507398208141485
-10.415365893868566,28.20686271056268,-24.96068895364194,-13.299451412382922
-15.462049596249754,49.927637027793544,-39.99637130066098,-18.685257146496966
-15.54230975347729,53.991469146827725,-42.397122030965186,-22.96400396208206
-8.7499704841761,41.00796741602167,-30.031477038511674,-24.858492550717635
1.7341098093561207,20.647838924115433,-10.222975502762296,-24.29949151703296
9.579771980632326,4.474906697105075,5.175997654793824,-22.644505731504562
9.929682909303574,-1.3767546957988281,7.973324580171611,-21.86490685494262
2.590918990402673,1.2416100390650069,-1.502847095415079,-22.96415817749265
-8.377167074264195,6.430383379970434,-16.2180113579925,-24.94508747341411
-17.32234871016598,11.44226003189936,-28.337128432780695,-25.485545380772404
-19.677431942669468,19.89983530490405,-33.81339381124902,-22.817707826598838
-13.78536475749016,36.54613938754981,-32.640106120065724,-17.069202168659757
-1.6564683175380348,58.52882609101149,-26.291320328324975,-10.069878321772093
11.835169242641566,73.78418836074802,-15.994588852008233,-4.216862982796132
21.23937840769895,70.14874507836011,-3.4981833311251918,-1.3832966147413792
23.03167271013782,46.575315391706596,7.530529092885358,-2.1556817249306715
17.024842430250892,15.156692986679356,12.375060178430914,-5.463589602546731
6.365797610073319,-7.789915446196958,8.647523742170716,-9.02180815551732
-3.8301812466689973,-13.405119189972648,-0.9438921464057297,-10.629931376324203
-9.134941216228231,-5.64581323813975,-9.712028549736521,-9.347452651243461
-8.554453961439714,2.9591929964163475,-11.74478644128159,-5.56259656603054
-4.989048999389686,1.7856683333479255,-6.3643554255396895,-0.2815889823648041
-2.504643565625971,-9.121202289803024,1.6279036483432145,5.3258273454165135
-2.893258001014501,-19.531346861842504,6.0227210508645825,9.963870344021155
-4.895247743243218,-18.78788595578751,3.9172967994907335,12.5241948942368
-6.314226628746627,-5.742134966951448,-2.697812746129819,12.775178140192628
-6.175821708251569,10.619310990806847,-9.081026040339937,11.640542974832229
-4.851776244452903,19.552961522484313,-11.215598688064027,10.69194520212494
-2.8871484866384294,16.90051986415865,-7.84841797546373,11.41516835461553
-0.23002644080011445,6.220482643139474,-0.1537003915925241,14.667430915554705
3.5693300015247607,-6.072925391826892,9.82473513975807,20.078660083544598
8.504107245001416,-15.841917586040074,20.11523765707016,25.5546991541232
13.089235145950722,-23.018658741926856,28.47084260889113,27.91056864502762
14.192006600765508,-29.89133492753324,31.87219125002819,24.958714032553296
8.85113117413624,-37.3107110637851,27.43755014532836,17.43490308647982
-2.6379171522716356,-41.57916956334432,14.652335235766392,8.75408447594812
-15.364159487831188,-35.583041117651334,-3.0575840489770747,2.695622607467511
-22.352165870957673,-14.775034848776585,-19.27357346006129,1.1197637306115158
-19.407773889668068,16.924404697754973,-27.86377702674617,3.3508512698888424
-8.19823042578081,47.52689297920067,-26.463601511019093,7.030453538805913
4.8427310486162485,64.0321151423352,-17.747531743784492,9.457881403081153
12.69313740654436,60.00584414839044,-7.435422656928728,8.886765005203925
12.084229469171943,38.05223915772205,-0.19103466582393525,5.49511490266934
5.475623252190538,7.449222295361773,3.5426581516043396,1.5099203348638877
-0.5387235930758166,-19.488527281698282,6.976900215504395,0.1578694923465547
0.3194202042237875,-30.93156602088095,13.013204374650424,3.8383481689404877
9.592577606431515,-19.952325941961927,20.678709553798353,12.404090453034247
22.99979855739144,10.806347354620266,25.596913108927488,22.500151466065557
33.35511817898482,47.70072826125493,24.037106566572195,28.758743467928127
34.91573619508071,70.86854885940639,16.47727288560865,26.806051352455714
26.19315976304083,64.32993923337568,7.385399663034558,16.346721910423327
10.36064185383006,26.160636105867262,1.8302612936642184,1.7253274751419043
-6.231867057074674,-28.58963049962914,2.1947303586264537,-10.87640721965808
-17.036671685084738,-76.36597903702634,7.431917120271167,-17.342711193085577
-18.859666854559695,-100.1897772647807,14.598096525684916,-17.442275908930164
-13.688270362914162,-99.22881546134253,20.688691540841493,-13.748213695106497
-6.982487648985746,-84.73138655475381,23.35345477573029,-9.508583483475817
-3.6464835045474517,-67.61668179317037,20.855368630741705,-7.305511735834265
-5.037640245194668,-50.793641558999916,12.545484596687464,-8.577495228340636
-8.957700337270714,-32.1385622326526,0.07569276624997938,-13.338819459054987
-11.71663425172771,-11.724087703011623,-12.114583990260778,-20.121986633681413
-10.487790258276952,5.518835052742373,-18.51458013944981,-26.523694258477878
-5.050550428851904,12.97354606211946,-15.903579284423845,-30.176919546184468
1.6991868148767997,6.954846467621655,-5.872946309960481,-29.661053622866955
5.2797674797854945,-10.452750495364475,5.684494977299883,-25.167473410418616
2.787202919230999,-31.232119528590914,12.040092265606722,-18.714922301420142
-4.66411198573058,-44.60594535387284,9.752781375395077,-13.321653479117982
-12.39349125966639,-42.68153794757318,0.6837689119607722,-11.05152184955308
-15.100491399382816,-24.599017532411484,-9.424672755614134,-11.315466423789257
-10.040188437384744,4.1169317385345225,-14.84681940612898,-11.262485506156837
1.3203214325332444,35.18755536288005,-13.590732228685159,-8.356119589521223
13.731458370107386,60.11705636980523,-8.34541414417407,-2.981728895884031
20.779260761360884,71.56114652844731,-4.099497024776956,1.3257356167475316
18.8540837986584,66.47427373399233,-4.448303145137095,0.44429087013433455
9.827067589743061,49.92994699018004,-9.468494773788235,-6.898633793975697
-0.2286611732587358,33.81616507160299,-16.38205273233498,-17.54395488461007
-5.604915823850651,28.611514547874695,-21.815937795632962,-25.65362195519656
-4.813208258256407,35.27723496921807,-23.68288452586796,-26.670743035995642
-0.6282049403227054,45.43223656371889,-21.81033569182732,-20.302860748597407
2.8183687265521087,49.204953138536446,-17.624755697696344,-10.028651225597049
2.9018023191778903,42.85815804060984,-13.338688964372896,0.05531606034235241
-0.3971311748040205,30.41284412583304,-10.922310976333131,7.681153279318448
-5.079551768017928,19.76692409459663,-11.313606733723338,12.10006087451565
-8.796719101115823,16.648909546192353,-14.209398686074907,12.595735971977675
-10.577722602263712,19.995432816887746,-18.19393426874592,8.638114176523738
-11.068829857792258,22.5834930503732,-20.9338416785939,1.7476081703417334
-10.919102412479377,17.795852145190736,-19.858169972795853,-3.784503105006419
-9.40538168364591,6.491138363249101,-13.679570187147304,-3.2675457616071917
-5.507430288923335,-4.158942379318337,-3.808058015438449,4.585677134933276
-0.3475861348364242,-9.38599530340133,5.992257001166724,15.988494042634647
2.4826196254375836,-12.863213416350769,11.965480930866963,24.346657944907438
-0.056089937256045656,-22.35850339895001,12.887908663240111,24.94118417608343
-7.04282661550013,-39.497781732931706,10.559631042148002,18.538725573728886
-13.532196464331438,-54.93452805212699,7.9436239419436365,11.04005853464002
-14.202549624494479,-54.58786455032081,6.721156342029394,9.103414399157634
-7.6460747645641005,-31.975952899647783,6.359723716540989,15.024621628088301
2.2489046120945924,4.044139502611796,5.279029077232505,25.122261699507426
9.184613152412513,33.90151719828166,2.858594063542846,32.925745489140006
9.637305114973087,42.05098947958524,0.41630059016709736,34.134875495757
5.916421338074416,29.342639387194456,0.2829292059223464,29.083137664682916
3.86769639045418,10.940368533669703,3.7793796312067465,21.334430303481923
7.06375907938184,1.513292065212208,9.868457386460262,14.524071659486626
13.307575810425362,2.7435577302846648,15.686366908095474,10.195637752327395
16.990079300242886,5.020103410996567,18.515108921907846,7.636060265462044
14.523434064934005,-0.789320309452223,17.54746881163058,5.072836720002174
7.268415749818777,-14.979902863764027,14.19619242761101,1.1336040733648156
-0.11475915720419598,-30.91268311700444,11.112439671741534,-4.3412359751650325
-3.3536826478261617,-42.18242070595907,10.77304092712323,-10.508241680380593
-1.2111031073317182,-46.91846064385002,14.032524758199557,-16.287927038884796
3.857263502797793,-46.77242278782391,18.915143225987453,-20.795608520422352
6.988063654482803,-43.69625531662591,20.84044034492231,-23.189171891099615
4.02316327942994,-38.227658776696856,15.476568380036191,-22.61429853514156
-5.043341336421446,-30.445012458660106,2.901713189717296,-18.75379178836826
-15.239755521555104,-21.85732873845054,-10.836304764142863,-12.431176231021153
-19.779321907454392,-15.236566493739259,-17.31567830407453,-5.411769602556029
-14.813227162083653,-11.481950498104784,-12.156896688051875,0.5129252404658284
-1.9111238184232515,-6.881119191843384,1.249710601510453,4.285543964957512
13.183839237473498,4.612611664607253,14.05142325914461,5.705687340694987
23.97207224617378,24.538778464467583,18.390721549966937,5.1562276303924115
26.53990922729878,45.42866114359714,12.852030467958441,3.218126621138132
21.334819402172744,54.72281197935575,2.873855225355995,0.2640031177193998
12.513733900870244,44.57911579376083,-3.8116359277179166,-3.6735220621603384
5.06762498137622,18.582210232790782,-2.943973257491276,-8.450441357264518
1.7037974217066507,-10.337538673019415,3.6643854488571606,-13.193501694619176
1.8908608497070882,-28.19422581738394,10.245509065424718,-16.42095986572147
3.302340247810597,-28.109276412386727,11.696370619688233,-17.04547745745136
3.6696193081932122,-13.9862895888238,6.934507887338252,-15.294261614066324
1.6093238582574358,2.0977229396806436,-1.1764241087440352,-12.682658775965198
-3.110950394661514,8.210770472188056,-8.615199706584901,-11.21277711928986
-9.35295457344543,1.4631685387930478,-13.241826307688221,-12.420032151802138
-15.147510535031277,-10.389776355050083,-15.886222326414584,-16.55076524242531
-19.217426196216426,-16.768929195995327,-18.956893618500757,-22.12454748101515
-21.904174898601113,-13.704889904951287,-23.918235566077342,-26.463174183748773
-24.18448680570353,-5.597837380050261,-29.768896617522774,-27.25931732092311
-25.97739936387825,0.7229305633218007,-33.680177601907985,-23.993028425193717
-25.932234839375234,2.0316446344834658,-33.083112289348676,-17.854819960616222
-22.84653359650069,-0.2183429337587316,-27.46319947601686,-10.46035440955516
-16.921741411639616,-2.40763259814698,-18.646960827434444,-2.951268319732498
-9.726775011873658,-1.783031840097253,-9.623026651894309,3.7836354443002156
-3.3059669789354986,1.6904137466649778,-2.88129818351105,8.742323473159605
0.9279045435970222,6.197504218866365,0.5871833984599065,11.327928608963015
3.211486784619034,11.769081824482331,1.1607195035529,12.2600193337682
5.55846415195783,22.506099826406462,-0.13036439821295667,13.581961677494114
10.150303262977337,42.41316692297747,-2.0253132181131575,17.36012281931307
16.957386924157042,67.64235083834075,-3.0037521995255627,23.953663146006047
23.156708312972174,84.9735748115749,-1.5017663619821542,31.146695191210146
25.384356543951647,81.15335059040254,3.156612944980631,35.02686311200792
22.600648281324457,54.82839368689814,9.792472937890384,32.496290271857305
16.686636583055616,18.636030745947114,15.672822283989186,23.829200448445242
10.667563550796151,-10.747710273046565,18.415682902956146,12.954774942797016
6.757852020373504,-24.69661840611204,18.00426028551678,4.720684834984625
5.610706184885342,-26.323994201280097,16.76842197725349,1.377665431158423
6.390975260983629,-24.394346381132905,16.926741698965017,1.5353539750402567
7.239405614641967,-24.19198339240668,17.938896762051847,2.317664435940526
6.343315112985593,-23.16430354001559,16.511558560713592,2.2082921535248246
3.2370403729798563,-14.617796941717868,9.628473266127925,1.8141098308312937
-0.8543243455648784,3.909106138826249,-2.0745407530508566,2.3551889688098955
-4.010168217604441,25.516298179369734,-13.753408881924855,3.8521484877754717
-4.926345452753702,37.74170785978871,-19.37075044038459,4.7609366286952355
-3.562317941750305,32.44047311988524,-16.041625309871034,3.222687310279011
-1.0982976966811546,12.495274633878735,-6.281686437314495,-1.1559475148248033
0.6535619054688644,-10.723705869013202,3.7835721230209165,-6.474930294399152
0.40030617523748213,-26.178394883687755,8.948162921247764,-9.63708470602442
-1.6753148149110082,-30.482950867610032,8.415548734498827,-8.834139705110468
-4.432654516669072,-28.850549302654684,5.274438389380588,-5.339141805212433
-7.464237023066398,-30.037689261415373,2.758260485966975,-2.772038920991795
-11.6559177131213,-38.77453647637927,1.1601578218974535,-4.293548680464337
-17.390365060004406,-50.812633554531715,-1.6369772210601132,-10.127082590112304
-22.590772072510678,-55.43811256319123,-6.9381483085292395,-17.309958732937783
-23.624267699732282,-44.98314762707161,-12.885687000778567,-21.553929087029037
-18.583030864161753,-23.08227725439312,-15.398610183894336,-19.82290559586003
-9.291485512753871,-2.77055421649848,-11.496084124289709,-12.217592423229451
0.1273919000748909,4.603950255230273,-2.0053242656016854,-2.1185335294812595
6.391990379909593,-1.0392253761472234,8.59294695244156,5.738336270652027
8.899498389918534,-9.100922797090096,14.957703975146316,8.140000261102134
9.277986278655348,-7.287378308933156,14.15990915392675,5.103706366802295
9.65217069848302,9.100310342953746,7.220542013475985,-0.759950504298277
10.894826906666026,33.58240826614754,-1.8204173139262902,-6.284332403029524
11.925970875971611,52.0689825918204,-8.35990056659963,-9.390956626457752
10.826166307490636,51.83878838215235,-9.545367728499391,-9.595110353809623
7.085078587845619,30.886170760281708,-5.324284631200344,-7.770384743357314
2.6469809804772684,0.5736746614753562,1.8061719525356725,-5.563695065355917
0.31855789612578855,-21.519094736020385,7.926978581162137,-4.5238703922865895
1.2363690118519506,-23.432145707465974,9.580128776503255,-5.2416988836488665
4.252913305506159,-6.4469137310842095,6.088872769349211,-7.019266616212456
7.491476855424739,16.065968055968543,0.8086649071309205,-8.189551070179549
9.722351347201194,26.7633544046474,-0.5921421654831577,-6.833943987563618
10.199717166035173,14.890701038009219,5.412789893161108,-1.8062916104836544
8.116216686087132,-15.880750189431062,16.355028197501234,6.108117873155595
2.9757834598192914,-47.94000030160833,24.31679405587794,13.823843586567387
-4.61543064748745,-60.73679196724607,21.3388369640203,17.415805607851794
-12.792311549732618,-45.78459252126375,5.8878843309376805,14.875329734966273
-18.91071013794981,-13.227652707102871,-14.827995747108117,7.915136708622439
-20.287758787908945,16.56472263721519,-29.10617781051682,1.0790070066908104
-15.404288806334973,29.11225739812837,-28.86119538999418,-1.2166887429912796
-5.407971927750015,25.226160713789632,-15.448487113333615,2.5005893170541564
5.489094951568227,16.45338503304669,1.4886132772320102,9.795900062758287
11.867545207081848,12.580155726819608,11.174890220172415,15.590476680311545
10.220875908360883,13.206941707381988,8.98702821899803,15.07368129732649
1.0503426128851638,10.262471259056907,-1.6200719116733229,6.8479407898573275
-11.290808373095928,-1.6764939294413261,-13.071607669773547,-5.795695423221471
-20.649098761054677,-17.290805850552523,-19.45460207908223,-16.801637918119837
-22.174822902698082,-23.386442048146563,-19.58138405933395,-21.291555429488877
-15.224618500318899,-11.475049668928218,-15.876115305499889,-18.437217378079744
-3.976314822719523,12.16654657329239,-11.119737020487955,-11.184711918596516
5.510451200405291,30.646363146117093,-6.292543572553568,-3.6128338583577837
9.828093627238763,32.05950523702004,-1.0641951557854932,1.685846595842825
10.283040325420302,20.6660746086211,4.363322361120381,4.579433552830257
10.708826178311071,11.992836269263837,8.556920163785042,6.621039739421952
13.558798171610857,17.264057092078055,10.184726614210689,9.29720636296803
18.001626550804332,32.820763198906846,9.715750577664364,12.533580649193746
21.02476096708377,43.85007078409559,9.22380330577893,14.731258662990031
19.84885636626846,38.092460875106894,10.079827318525865,14.433371410747183
13.82698752252749,17.522498156071634,10.837190966442343,11.92100566674555
5.000265157143078,-1.8168890006852532,7.869042505021422,8.903329689369713
-3.0150069229211023,-2.720017611594001,-1.2045224663628047,6.636789952928508
-7.372937898782668,17.239302190504816,-14.196358090671005,4.655875963668697
-7.8073689521611405,40.98672986208034,-24.445404571587428,1.4467752570720236
-6.201472291717773,44.616619541299116,-24.956443209777625,-3.8757826293904247
-4.506911932246478,17.574351826050947,-13.71760581974533,-10.618495411010695
-3.351494547920827,-27.72734790730067,4.077250905407952,-16.875950972748516
-2.4307209905291316,-65.47111776858769,19.10378046256709,-20.646452608898223
-1.4820755650972626,-76.00658876774266,24.20180533066398,-20.976213130748214
-0.5636945805449484,-58.48697007738651,18.86148049706495,-18.540758945473197
0.06517192447592578,-28.06744677730457,8.354720385957187,-15.161049471067379
-0.1403982294649354,-3.027437846914221,-1.1210954838041072,-12.44837254082156
-1.8563406956852349,6.684441019096483,-6.5335717370913,-10.772440623265888
-5.122385862408966,2.133042265878087,-8.240500492250273,-9.55121462481853
-8.89212930320954,-9.85810685520317,-7.631022285922239,-8.33426593910261
-11.772039151012104,-23.573006710544682,-5.381047640288564,-7.297505855433511
-13.03861879343354,-36.875901901567886,-1.5577766722408246,-6.758652965421369
-12.516104900522986,-48.524463303663865,3.5742627726386402,-6.606490980485291
-9.807283603399082,-54.93164711346793,9.160059961186594,-6.327196953840108
-4.569805709906522,-51.00834852533711,13.718505567864822,-5.300938758015195
2.2177197007887615,-34.434026550418196,15.351099911905127,-2.919451753138045
8.04289351771875,-8.626565113126908,12.631949831533833,1.287417314243108
10.619197701795168,18.432232621608154,6.069418719054942,7.264924741696835
9.844948128012785,37.98599433420387,-1.2123603948557538,14.10018533977215
7.8229858988568655,44.347369783863854,-4.920425352250004,20.146194951769115
6.975754562961584,37.73653093091818,-2.735991506969551,23.50150299145115
7.9577091069685775,24.79421454759827,3.236107348110359,22.6079773634473
8.922982667525245,14.794233229279964,7.247140533618261,17.04618265181184
6.845753900021037,12.966958343732315,4.125208384517191,8.371263174184767
0.36853487848898286,16.945692262316,-6.146752695677796,0.051565201078906095
-8.073590845851992,20.310778032948935,-17.703920699244115,-4.238711823499151
-13.445587901988347,19.24973575304759,-23.148067099142196,-3.075530481555281
-12.288517764871452,15.036293941525054,-19.407890192153776,1.5973015656855938
-5.910710861695916,10.97634119549943,-9.928146430095214,5.771077143816225
0.8095828590148696,8.8807839756106,-1.4910487210540817,6.059305426334924
3.6816150524483797,8.642349947796946,1.1113082253993782,1.821547631664828
2.1340743555301978,9.42748116824386,-2.0216498373423013,-4.49437591290529
-1.3667273395951938,10.33621788197572,-7.074238041349354,-8.887852877580416
-3.707951926360559,10.837298306247659,-9.824297480239636,-8.4029004791976
-2.968337864140387,11.218972833394732,-8.240339919529642,-3.169777654406642
0.7484769840897955,11.864208873300182,-3.1189694757497937,3.716402450590433
5.236160507386094,11.721998797519413,2.8158401347806907,8.500528982591108
7.361623140308458,8.64069825623224,6.5468926092390465,9.318610300451855
5.421703377024444,2.1223698870489303,6.482804686568345,6.9589538829460835
0.7714271696562719,-5.001184316445309,3.4366443444309147,3.6573892811704147
-3.113424583479885,-8.671962295625036,0.07988687706892497,1.3200153214989863
-3.3688540283082182,-7.268382284544831,-0.900807076000523,0.45481969098020136
0.27169243592545134,-2.8841881482536005,1.4614534314368668,0.2144267508698579
5.614650660253942,0.3898287395039204,6.069956224543255,-0.627107925834157
9.603585710674727,-0.9556841062253152,10.777563371933432,-2.4355267669887795
10.171148789088214,-7.7623615964280175,13.73428505839752,-4.314014342615232
7.4707321988637965,-17.053664119109367,14.163540609834984,-5.069884414418885
3.6614105456708126,-23.16443611104872,12.320189003944584,-4.598576168046968
1.0665325705673896,-21.84387240121194,8.959639985585852,-4.153265354110726
0.22548072119623994,-14.402501404261882,4.938018344276016,-5.24889299590231
-0.11288513827594936,-7.399615140570399,1.2945757760387713,-8.432892854422096
-1.1627869597675389,-7.531882168341328,-0.6169538590094875,-12.973376199469758
-2.7631908152148674,-16.425141046542933,0.28144670850627007,-17.320390444022436
-3.9133707773973008,-29.358098030482132,3.57783362020685,-19.77968597280651
-3.954590834940852,-37.52067127084191,6.790126154320848,-19.23460888956927
-2.80486308612175,-31.942330470182267,6.52565255724433,-15.723580769960753
-0.5927467723129801,-8.711500138981382,0.9400371745177311,-10.310837571208168
2.2162799426040123,26.1218630331915,-8.349491143928132,-4.185267160377119
4.490291362584222,56.96034334118464,-16.683988510329478,1.992748343108397
4.870679156086503,67.35870231232562,-19.32165900434722,7.618792351814996
2.670427876563274,51.51455503534823,-15.028322261703039,11.286479772040128
-1.9019237307474088,18.459052467110677,-7.393778109183291,11.11489360611208
-8.151316294015235,-14.7045699051585,-2.383525199399193,6.42324515913564
-14.88821340215275,-34.013381310734374,-3.756868925216984,-0.9577027059629191
-20.02516408262737,-35.50664222541347,-10.055222077090258,-7.290792569706218
-21.086651871601426,-24.73861010008593,-15.74234955512685,-9.126625316882524
-16.967194076777886,-11.43752110233676,-15.625227511116137,-5.447848247661086
-9.283322950394108,-3.182218496355966,-8.950963296000841,1.626063463680052
-1.7014951410307557,-1.663087117007053,0.10176951713870977,8.0091180256034
2.3100479007020813,-3.725841896090193,5.791037409410026,10.15086405598555
1.551659668700021,-5.6289056274223,5.196094503066523,7.365889825071998
-2.191475106050884,-5.832949421228344,0.1727111006539209,2.220064425871216
-5.072827816550837,-3.99264638634594,-4.423955231214183,-1.4806199464157754
-3.600387433453576,0.853573551480465,-4.6441784208718575,-1.4848514596001707
2.632642066408556,9.361756662333875,-0.39123812373273226,1.5815641900139408
10.256998951267386,19.69820839678539,4.807214139098855,5.149988961938842
14.673571509315297,27.999085095541506,6.8536419914208695,6.821652036147936
13.694097622171606,31.323215123570154,4.325697970691979,6.0357637992239255
8.7699407695069,29.08548043216019,-0.6585102682569075,4.279394229032768
3.0961760635215785,21.4934662756901,-4.204698427897439,3.7274728625277285
-0.8328104543010604,8.234396675585854,-3.2335266022534155,5.232972641974956
-2.019974939050387,-9.820773374861453,2.80324333124478,7.4100188998727745
-0.5325229048556692,-27.895459707367117,11.579534284830793,7.939305486701688
2.921763131087167,-37.71672723032136,18.942769522381518,5.965691780225296
7.283525734577751,-32.248704443728904,21.214134079717855,2.908162445828187
11.459908461793985,-11.705944127885765,17.55031196783311,0.5455574852147533
14.233694063534912,14.047778787455128,10.345434524531141,-1.4641026520009996
13.985982209036383,30.217419767090053,3.110136453674218,-5.460546225159397
9.581459696153294,27.584664756295076,-2.0767933880601643,-12.702573913064056
2.435396588716766,11.127408202135896,-5.087674193889229,-20.494738372239688
-2.9254293516170735,-2.2671964170134893,-6.350006509250097,-22.90477362289634
-1.8906470705297078,2.507471219785676,-5.702826142282601,-15.143400889885772
5.903435318851722,25.082760035919126,-2.7499567768493645,1.8763456170008375
15.567777192261964,48.95977513292204,2.141674605625629,20.85003445791245
20.55993714871642,54.72860849794515,7.506506070909115,32.354162962965354
17.338188029673717,34.89904277336172,11.332369776660387,31.003119025142727
7.114038510206232,-1.915973582799992,11.958430378660417,18.622693916861046
-5.752977225601639,-38.58869126818284,8.83714088995147,2.087549348158978
-16.619953413248112,-60.81035349152498,2.8156130374301,-11.831768994825385
-22.771187416599005,-63.952240002008665,-4.306566660084336,-20.02807625127433
-24.047591129341644,-52.3684723674833,-10.712539232989828,-22.797646093374148
-21.809568854832612,-33.51972866351389,-15.281244116407981,-21.53007830446769
-17.37929014444493,-12.765322393783155,-17.608232957086507,-17.293777166774955
-11.648424860758636,6.724862867121684,-17.636523382560895,-11.062345088974862
-5.901607873285008,21.044860680890224,-15.531317027170187,-4.186128327036856
-1.9668837764769147,25.92436680429629,-11.942560548178575,1.9058837254044325
-0.7592605938783478,21.581534410589153,-8.147808241307919,6.272392296504392
-1.0342638283512948,15.101715699803048,-5.554347916992204,8.548910258774178
-0.3572170641077501,14.959901954311707,-4.707609382314396,8.715462147080107
2.6506713668418302,22.825968908834685,-4.653823603678236,7.046662774920525
7.3558175891939666,32.3241662864103,-3.515161192472346,4.239735806254535
11.985136366550472,35.96382613962601,-0.19852148546858314,1.3844003621407055
14.633989630839936,31.689596986350605,4.136081945250818,-0.41321350266935286
13.593072301240749,22.2917063854711,6.548651849513712,-0.7530320393354742
8.01420383157851,10.362577216355824,4.901840104172848,-0.6605538184343989
-0.7924580021398946,-4.307646795560694,0.3716804452782944,-2.3620023095686915
-9.1440232895631,-22.522978995267575,-2.851592655863395,-7.446898537227751
-13.07045453218115,-42.045954701091425,-0.9284918802998917,-14.562912976981222
-11.189369124505644,-56.868517963486,6.137729102924075,-19.234248312133886
-5.8117459103394005,-60.74746408666743,14.095274595313718,-16.951596873839343
-1.55874058806111,-52.491579359928465,17.352870791687604,-7.2515170248865335
-2.6392595451698115,-38.06853377489901,12.644750575571187,4.997899039432528
-10.142314182149526,-26.42240387104658,0.9636091001750207,12.526009871012624
-20.676056950386954,-22.16403711545006,-12.903092814179178,10.533972726710589
-27.836854805455268,-22.621489392121518,-22.62610441126105,-0.1203568962559946
-26.366148112117656,-22.414520329308296,-23.333499044656417,-13.43160465127511
-15.881715590726813,-19.77705414471943,-13.984301370644928,-21.85560884577168
-0.814976758827117,-16.967896703798836,2.106580688441493,-20.70708373920347
13.015331011207488,-15.242782550458195,18.73828791759254,-10.737469202794532
21.584764029377528,-11.951069593233145,29.414652441960836,2.6234725954926104
23.47332540831062,-3.766379037472651,30.118738215674963,12.813231349971868
19.508302481722943,8.595956165750199,21.42477351597895,16.12859384988395
12.629553295550902,20.51569538528461,8.622271675346312,13.642409925284264
7.1117714625070665,28.1907365420942,-1.2014966240661584,9.98354105796827
6.1776781365491855,32.3602983924663,-3.892967877088973,9.856850428379229
9.606338760122673,37.30564463116792,-1.140893083467323,14.54647449707395
13.918070133351177,46.41021269895744,1.2720009173118842,20.857109946300483
15.22891182347419,58.10813198660696,-1.3301333370007906,23.515923266942966
12.220443719190731,65.61256764782783,-8.345257080503078,19.35616875777664
6.906934641173271,61.523882240634016,-14.38988970386336,9.797423103543606
2.884837033591549,44.346343202020066,-14.036571493990895,-0.537089937857882
2.3135784965417985,20.83219744342677,-6.780402302165503,-7.632666094935155
3.750949334539572,0.9341096568471983,2.018192352239511,-10.763716525166556
2.9844871515805633,-10.133191531965618,5.230353231615818,-12.018857883077338
-3.0837560033834226,-14.679702916497458,-0.1476239694199821,-13.771970427914015
-12.778309058012619,-17.864566395021935,-10.30780377866454,-16.496041370729348
-20.131338188232952,-21.230209762345456,-17.601076209115845,-18.302731620806988
-19.555923710490813,-20.89979826369162,-16.729895814985266,-16.259621459882204
-10.470783074308654,-11.368301327863179,-8.90702799184332,-8.812986826004744
2.109219762990801,8.552641658298384,-0.5730801544914145,2.1315344633092956
11.013822460631545,31.866806037111694,2.0171295076615583,11.415208490920104
11.492820366930761,45.232195617037945,-2.219533935602381,13.781032131919321
4.176545836718991,37.40090431403265,-8.439062480141148,7.900254902583616
-5.1303613164934365,9.083490076229275,-9.672007207351879,-2.13707847125859
-9.168443372581198,-24.842067270004307,-2.309479042723026,-9.367242270512017
-4.550404129414947,-44.64081773519953,10.692038189560169,-8.675247401381469
5.4629532620658665,-39.59072348730457,21.474950063156005,-0.20315755440617306
13.61050866822427,-14.89898153561988,22.991102397124017,10.906646195984713
14.567775772852707,13.127713405679057,14.446887320911124,18.15763089340558
8.680559362826983,28.442487705485153,1.861275936140605,18.093418906688285
0.48950471824728803,24.497474271090645,-6.86109278417965,12.155424565488262
-5.625816117086305,6.43714749715966,-8.036981860635843,4.663467871035941
-8.319167927964953,-13.585689132171602,-4.28802131068652,-1.0420313966787804
-8.883089784575839,-24.6130955994458,-1.2725499325819722,-4.682934568096242
-9.041336189441425,-23.578081725357908,-2.396213161649914,-7.8518117222955786
-9.191318779659916,-15.998110014794014,-6.1315609024045425,-11.504624785918768
-8.345918726251666,-10.373034443948676,-7.949599704679734,-14.940264412873766
-5.6153990799701505,-11.241660950270727,-4.852250896000147,-16.788686177528053
-1.7257100767418427,-16.58523419237119,1.6770381207649856,-16.364519872904282
1.240313145667662,-20.659780428370922,7.0008621900469725,-14.030856707663345
1.8782989142977997,-18.869587295127218,7.589787950966908,-10.745268663711766
0.9393321555266315,-10.977509810316104,4.0223585570700235,-7.533744707703538
0.3476081838300531,-0.9675903361629549,-0.11793385504670288,-5.155521025454547
0.954556486049464,6.26160969468036,-2.0213990291725974,-3.899205060256637
1.7903234659851543,8.960141394418704,-2.0664473182751957,-3.5537837797272216
1.4237669875816181,9.236261051857893,-2.587750039073372,-3.5599255225861386
-0.5647749411199537,9.091832727911466,-4.712448576115123,-3.205975300420764
-3.4814860902281257,6.740690790844253,-6.861046797440345,-1.881303347996289
-6.134839790854515,-0.880143689599849,-6.486748568614035,0.5072692058062536
-7.244166893365951,-11.736358296657748,-3.0537732399380983,3.2668832657749447
-5.947671446615659,-17.694234335491803,1.0782242912767723,5.366046262539085
-2.625954007270612,-12.367532701893902,2.936811356863949,6.414201465857374
0.9639716547567116,0.7243495374491115,2.0157474506735156,7.049447402824708
2.904077173378609,9.850705841877819,0.8444266826064499,8.102354110419286
2.508512480856919,5.419055813860053,2.3552675292325156,9.490399021774703
0.41743192158089415,-11.57769589745229,6.718467176787863,10.244415527427021
-2.2598416934871817,-30.3200922431166,10.857513056272321,9.598441888777842
-4.408662643205995,-38.10579938810289,11.134074592511832,7.73205261756102
-4.879765146861223,-28.94917508079227,6.6467645779714895,5.368924618126979
-2.9102208065710204,-7.66696076391311,0.1987063150679613,2.9481885491767637
1.0673596346909324,12.920330583119947,-3.7394237729673985,0.3936090993773222
5.431473231586623,20.535755945380448,-2.257561165879161,-2.42772182873947
8.518973545909612,12.104744587171872,4.027098272279356,-5.135620963094925
9.707564332587339,-4.444358454043055,11.521620209870234,-6.664701968204367
9.453083440755421,-16.88843036441279,16.207434286994612,-5.806930345156818
8.649914089869478,-18.087336572566574,16.34695269199785,-2.4283343425206505
7.977556411356903,-10.351274895842248,13.276956055623165,1.5779159571102128
7.339785751785913,-2.0427693593401743,9.581622153669121,3.0071631652726474
5.721897281334076,0.26063911810237544,6.316633006250881,-0.18613389023725282
2.159895187179086,-2.122207494377095,2.102422183056787,-6.729379539558836
-2.695218364802374,-0.7394658280727073,-4.895064082057062,-12.489170327460647
-6.413077527794564,12.009958323636871,-14.191884970283871,-13.434495587992494
-6.802642135670113,34.14401196792878,-22.377511425300565,-8.561943188155954
-3.968667108589035,53.51208452420793,-25.29569649158572,-0.4191292581714409
0.014264386407673732,57.23724283836702,-20.995641814039146,6.892440005261214
3.1119508575866006,42.540431656483584,-11.187112390594738,10.49211068186878
4.408910806406458,18.613132554593932,-0.47642642081369824,10.320293932262285
3.6343907831619022,-1.2486116327148762,6.0612127371035935,8.624433783979423
0.9136040543714326,-8.851027847094839,5.811053567155551,7.859497519968929
-2.529352299007659,-4.397117668273726,0.34742724241015216,8.70026120901406
-4.3802285663655836,5.9901844143823695,-5.586200336660682,9.751978914593572
-3.008262325053917,14.764740644760494,-7.574741413479127,8.980041336772782
0.7790273075348885,17.35206434904828,-4.927944917067294,5.374456614396713
4.2666870856402435,15.105425877093095,-1.1249220332560625,-0.4477926130715017
5.171987560454174,14.23920319834532,-0.8306586590299998,-6.635165554797649
3.3640428583993818,20.19483052541913,-5.89225419750628,-10.796471999794184
0.6932175402747802,32.28709604937404,-13.602980451654265,-10.86172800472294
-0.45546363646341503,44.210515903300234,-18.727742491403273,-6.238720047734207
1.0565811283898472,49.38201689844011,-17.730461566281807,1.3246698981525082
3.8348724037411075,45.05358722329797,-11.746057361427996,8.165951401256917
4.428619605985223,32.32729958208693,-5.741920444825004,10.496333082311484
0.1034168860414257,14.529555309190552,-4.411232807634352,6.445057148114767
-8.134822015870022,-3.960357104913203,-8.119161934011279,-2.827790788665008
-15.534895481297328,-19.27593148913373,-12.347509865721271,-13.4654879822729
-17.199451944938634,-30.00146816399227,-11.30619951611886,-20.697868211079037
-12.04547800261345,-37.17227584370938,-2.848380960361462,-21.468569356117015
-3.5540190323686196,-41.89247853746906,9.436592984303754,-16.323504279755824
3.0190694791805166,-43.62186303318358,18.79174013030238,-8.893101276757744
4.452817974847703,-41.20009733560769,20.452390888452797,-3.162708072302969
1.6823676443528162,-34.76026518114346,15.22607888562657,-0.8692794284003436
-1.1166109870707719,-26.120859570261135,8.680890756140036,-1.1030196721171739
-0.04988688138105067,-18.00133729860482,6.615399786706032,-1.7985616624450094
4.863698687592022,-13.199670505950099,10.37649901709961,-1.3062630353524427
9.311377301983057,-13.304496240832588,15.814300091049958,0.929571968083496
8.475152157372229,-16.993216809870244,16.875503801505516,4.270142710683261
1.6695879965336788,-20.26105274908284,10.959780459270256,7.1146111012929625
-6.687912710681386,-19.845404675782248,1.4870543416089157,7.749147823372316
-10.636275591297716,-16.550732619707333,-4.611537573400159,5.5908523398646315
-7.305357962629229,-14.1314501642296,-2.4526840094116715,1.7598853548971913
1.1712956217726336,-14.810889345880472,6.774373260228367,-1.6842126148224172
9.31754800373476,-17.168677252080723,16.614347194608072,-3.179427815725556
11.927722854300685,-18.89032468309997,20.32894436250677,-2.5686597323786926
7.40006492419628,-20.127575644495536,15.982161757649857,-0.9551071771822096
-1.2142052774159078,-22.717164043973305,7.476160490120436,0.2084949684719456
-8.421126816816237,-26.639156963285284,0.8679017779163467,0.1762568503588918
-10.346809857563235,-28.759210538795568,-0.6236808600678856,-0.6572184279287314
-7.336250308440319,-25.537721267763647,1.381711413876841,-1.4662950283869975
-3.0171170803565315,-16.585418191605207,2.64175952260047,-2.2644242706341333
-1.1450552066908692,-5.58803755066542,0.1593528916229458,-4.176023091076134
-3.0957439636650697,2.0902424078351753,-5.673791220818647,-8.003270887519067
-7.361490691546207,3.4616244653327484,-11.795854122363021,-12.55892944362168
-10.652705637235016,0.6215445570672271,-14.81150111527105,-14.930737362825857
-9.95570268237134,-0.7536086088995048,-13.124144660281733,-12.784172595825533
-4.672976672857002,3.4828140950908155,-7.7184158782867645,-6.411629398232413
2.860152973380546,12.401357952085418,-1.3202330120784962,1.5420680235830821
9.466517096233723,22.336970708339987,3.4352483446839672,8.309204788584251
14.003177194323492,32.32183332168884,5.489966478906897,13.044780887078838
17.847897601236074,45.39399663718201,5.431188444825614,16.985775968203185
22.407465150964956,63.53754153294893,4.344197015944495,21.698937018962905
26.528684305680095,82.12478788271137,2.6675805352326054,26.857938696717742
26.642786947543765,90.52842396445203,-0.0021357813348213428,29.5397447643655
19.479633012803845,79.10542984799662,-4.225838531609795,26.166832072573747
5.1579957178883085,47.34503655050979,-9.804223946496535,15.966495856681972
-11.399177826451806,7.399494342189926,-15.222588133951037,2.887914319048159
-22.088655844327967,-20.69353667794116,-17.958148797404206,-6.317447620653228
-20.45278320759149,-21.35640092093621,-15.940112133927457,-6.8006151083150055
-7.042435491757945,4.357800029483984,-9.518368536849366,0.6384768271229551
9.547280086646092,37.72394440237943,-2.185471790491881,9.793803553086848
18.228015553747145,55.52184708039568,1.2621733989823392,13.08127934812419
13.490333008336851,46.909594413816585,-1.877138713572886,6.44797513085921
-1.0680570981519,19.258604092363118,-10.064472955599323,-8.113429032889615
-16.503129611004606,-10.953644272613069,-18.480658944703528,-24.03713954871688
-25.50903303013627,-32.106999510577026,-22.235361776631937,-34.558281884739806
-26.604000900172775,-43.58950809746464,-19.397145101866645,-36.772697402804525
-23.21228028273666,-50.96259978412239,-11.973184422810482,-32.45115843759882
-19.69059783160281,-57.27812814051328,-4.371471483993579,-25.55842100002457
-17.763107745273874,-59.52748955922913,-0.2290299315108482,-19.164278602702794
-15.792936133440241,-52.91497700574595,0.2804819174802378,-14.195585063633295
-11.118858002885567,-37.78618848631947,0.3992551616685336,-10.020366745084626
-3.1367811537203387,-21.248296879584576,3.776668767074555,-5.400574609081325
6.033012267558569,-10.623223186985989,11.070268754714423,0.8772270245086005
13.859558569075583,-5.053970082330475,19.184907060150277,9.337584710595229
19.71919675972139,4.671059699524443,23.695026930747318,19.10312223222652
24.398640751798432,25.764830909166864,22.29101730313664,27.846909127417767
27.79886437940477,52.640632544894686,16.540565896634902,32.73155250357128
28.09147583824126,68.2110226127667,10.656558767953284,31.705507130404047
23.356669330050728,57.838455446976674,8.091231828565176,24.42058279302503
13.610955488594398,22.911768011112237,8.61388499737932,12.561800826051806
1.2429553776879223,-18.874472450334654,8.628654063617969,-0.532021218172832
-9.977943789207375,-46.47927821856246,4.861313004802323,-11.155664065626459
-16.401553620569523,-50.19869474767633,-1.9317273858571595,-16.950542452410893
-16.17379191627689,-36.654642225019934,-7.0719605980118185,-17.79528402577957
-10.48956043582086,-21.464037510453338,-6.116199432297402,-15.237722896032997
-3.1511345505696458,-16.25787816730663,0.8116584224491331,-11.306145812313583
1.7696815762336298,-20.649688162874252,8.659919140585071,-7.819022751742036
2.33902340625771,-25.443105477269512,11.449933452910523,-6.132345363699604
-0.6382251925755649,-23.007000279019117,7.061190238049618,-6.646060247711966
-4.680176929009796,-13.90292740597953,-1.3073629515101122,-8.29031721998683
-7.05883643441609,-3.8632642718867887,-7.995083035122504,-8.951283435280974
-6.052852174998122,3.3571202423376607,-9.313858276336806,-6.928979829108176
-1.9690599409443843,8.253901152995292,-5.80142643598162,-2.2214778547931036
2.8309767320134003,12.018079273029496,-0.8749165088577813,3.4621172940931464
5.544689533007938,13.483409117182735,2.3644711956448146,7.824049844965905
4.991517591630215,10.076765092685708,3.318157697857046,9.31674836372793
2.022297276999069,0.15412172781972674,3.5743231572438763,7.891429029879313
-1.9082506732520939,-15.585163018168359,4.706603410038662,4.742847662435699
-5.97097472894095,-32.61973756799825,6.124500940096594,1.2000467223788223
-9.665865134219185,-41.78050285379196,4.915947634038401,-2.271972804035398
-12.032987088296709,-32.977795370545245,-1.779915926939589,-5.850479814303091
-11.820338495813717,-3.4906622968668475,-13.53673498751558,-9.126422806684674
-8.370681964585856,36.681119580768,-25.467597388522076,-10.535704090634475
-2.1679035756701563,69.30923910035064,-30.783599835327948,-8.528896429690501
5.142000262579395,79.43435218823097,-25.57880020934884,-3.3359956549713674
11.02253599209159,64.10511943358216,-11.958836391031635,2.7652973139596293
13.037053876969868,32.17738232834222,3.4388480859481754,7.113416141330551
10.641048636709549,-2.6651917433843093,14.503785047175215,8.597924574802573
6.173348426408479,-29.391477873263433,19.755742808140297,8.156751727231004
3.342735051994209,-42.99223900735674,21.762126580921716,7.708542322726373
4.194046948676097,-43.08074912362245,22.902648299525094,8.562667218441245
7.57183452001879,-30.707531611112877,22.227307121009463,10.398985505340782
10.415166434446283,-7.683465119266012,16.688294540303207,11.47112889418812
10.120796309038944,20.523883774286595,5.163964103406979,9.987961620815753
5.840304248919548,43.016449953617304,-9.126318850337336,5.656817371267844
-1.398370742187764,48.336238589989684,-20.31343893358937,0.03539400833161774
-8.978849464025133,33.87237328407887,-24.038516576777194,-4.561663702939498
-13.57034458348703,10.067146779247166,-20.30486139830803,-6.436357353577785
-12.885602266558719,-6.764965849554274,-12.77442711596193,-5.086927869879225
-7.230433703698672,-7.105333022652451,-5.598974337781309,-1.189307839698054
0.6373107267759021,5.430687338854612,-0.7960067429642247,3.4457884604984566
7.186349541141173,18.758197256485833,1.9044447465954009,6.279723906895307
9.874659647272109,22.15678300639965,3.467321672167936,5.408851824427971
8.14961331207097,13.100303532801853,4.306722422722901,1.1678880407410785
3.695570223928202,-2.2964956748644645,4.422344943906493,-3.6921534374631815
-0.3296353532526385,-14.105252334005108,4.104544746871759,-5.787714804495872
-1.2812547529347127,-15.376067613065395,3.92153789421983,-3.4756863499850836
0.9446211670916378,-6.293559432940266,3.8373608306148497,1.935016889825758
3.7650913084335595,7.321126383130109,2.564970238983743,6.757347238470012
3.932026935985099,18.88460280462804,-1.7033205740272412,6.917541050843517
-0.10310327074714074,24.016586085738588,-9.339006905971312,0.5248654798129121
-7.217003879947265,20.29775930602123,-17.79578684793697,-10.428265559132276
-14.210522437343174,7.466871196486878,-22.488645369863455,-20.828797938900994
-17.479521881559442,-10.566485730406544,-20.011695597711828,-25.670279187472325
-15.305822857782886,-26.051324929084725,-11.16109266994178,-23.363878060111357
-9.456990866658536,-32.682269112191115,-0.801356221518756,-16.397845479871986
-4.122291610511582,-30.889530345772464,5.781015069934204,-9.032162135420505
-2.248851756554909,-26.461954618131053,7.001346359155778,-4.2230719038664235
-2.686260645512751,-23.722909024629026,5.817081553298889,-2.062340380972836
-1.4754143001388638,-21.25717671423143,6.517045990383067,-0.3656049608383258
3.783116350914255,-14.790768863194334,10.570023164011564,3.322667579477771
11.048205548852032,-3.3579214134270083,15.403184322627975,9.599009492908504
15.320868638158677,8.162579570443606,16.915334397313845,16.37638566079655
12.88109915064287,12.666783678537218,13.06543845303985,20.144312969944522
4.4975303679283565,7.204681931680633,5.445601337061028,18.466403256367986
-4.796261383546619,-3.672748991532932,-1.9718576605584994,11.711205606172234
-9.13045956580406,-11.096098720121182,-5.510465705923573,2.787924013382944
-6.034192476211949,-9.417637059918011,-3.9287886359576234,-4.538190234623315
1.8122337829544364,-1.202932930261001,1.2288367924953802,-7.4589943696328405
8.956278037764351,5.469456240259539,7.050670041574462,-5.3821117829082
11.57220799348758,4.6786202464061875,11.17024307729603,-0.3471072790282413
9.701947258873448,-2.7354095697117287,12.664186882936288,3.8890734014695862
5.690913643119857,-11.709583688243226,11.656662186137934,4.085732241494885
1.40663614646243,-18.45016002214821,8.68318822315431,-0.3306229226478059
-2.5808897127142196,-22.510482689550138,4.61820415090954,-6.999711504213959
-5.946216689853533,-24.55828774024279,0.6869607776629931,-12.42909570556397
-7.945600260219832,-23.805560827842946,-2.1642545511065427,-14.209741213995665
-7.956745054944681,-18.00042596209267,-4.058981268335372,-12.060704892694055
-6.03542034079361,-5.630258006030439,-5.913544796997416,-7.536959967092148
-2.792805092701455,11.085459178543418,-7.964443338125907,-3.0167598053240527
0.7363281846583981,24.468642505757778,-8.731023781626057,-0.4242654057607505
2.9940101685075833,24.387198027312202,-6.111572874093556,-0.17353461597703734
2.466038037662002,6.909007080089186,-0.08224368335338808,-1.0651386490470196
-0.8981885214781192,-18.303470170344102,5.862698969688558,-1.2955875522836515
-4.922044718091658,-31.87541787916745,6.872374735839696,0.3504027712335485
-6.346743034917481,-19.827934056578243,1.2359107985711517,4.085155425443336
-3.0452029829692893,13.716973955751996,-7.15663207672706,9.291468657567828
4.503898661632405,49.09924148749546,-11.46016312941416,14.577503676500342
13.256592282567127,66.34925924281671,-7.717638703828726,17.872647266048897
18.94536127772089,58.96701556759,1.4588667508908761,17.299347491009225
18.40449705549556,36.27774544379035,8.836245624082242,12.573746479825376
11.921897734644174,15.549556952673159,8.366087297530997,5.578194202901326
3.5921687805534215,10.671048482510983,-0.19732416826955856,-0.6319271435104589
-1.4261223926403068,23.71315661950176,-11.411324113581022,-3.5455072769855835
-0.7750216857690647,43.92758649477222,-18.313632356469366,-2.36692576305613
3.5595132005276806,55.24699192417491,-17.110960878585214,1.7469298065941072
7.104515489242606,47.259390664007434,-9.25948820667009,6.164285564466748
6.075175176611722,21.393297988321585,-0.09277786969115687,7.8939750424696165
-0.44271660888806375,-11.450631671252323,4.822659397676629,5.135309839290094
-9.915311711938664,-38.08568358778001,3.3206167942010425,-1.581167108001916
-17.44760341715367,-49.308976818768826,-2.191568530602455,-9.585298145433327
-18.74681858305761,-43.203906465459276,-7.053884404892619,-15.588731542208555
-13.62991930485905,-25.854081798784904,-8.351793863103223,-17.557206583809624
-6.809682317134845,-8.746134714959567,-6.993289170672341,-15.781821483002267
-4.269621658167035,-2.412956124901633,-6.019115446728395,-12.479447850820476
-8.125435266488418,-9.693566761031663,-7.128398665932862,-10.069060690093695
-14.87892083846417,-24.14101369357114,-9.005390902090227,-9.293176140249546
-18.579587766523616,-35.32608727406085,-8.760735118158271,-8.834236095181222
-15.698122652473842,-36.705809176723896,-4.656027655895985,-6.9598443002122545
-7.559005047112829,-29.697197334737513,2.3782971820047325,-3.594108619980288
1.1523305445116907,-20.907631250383574,9.317951651211066,-0.5142347301222047
6.285379569758235,-14.943619836794678,12.984350086639509,0.6109949340394614
7.44040298708494,-9.298809573178465,12.009649841867986,0.0998061807380609
7.727029170119104,2.833350319182591,7.598201658342818,-0.07529096482278369
10.013457345297347,23.10119654572207,2.6064476382874773,1.6156459996202033
13.366614616429851,41.72490450494393,-0.3076706198225118,4.691283539349903
13.880147418159146,43.617638439307605,-0.045337366194218694,7.123117142450339
9.398983854244864,23.31223757876874,2.799603984384609,7.252743231864941
2.739800083222604,-6.638840754089085,6.584774038617238,5.372326632774544
-0.6092492403236269,-24.295313459428023,9.339588358178888,3.5266747856462266
2.102410802950176,-16.728199960954772,9.467038224292443,3.5569199094170476
8.233202702192306,9.383307586732029,6.517886645010176,5.103807793213681
12.25835854370335,34.01383531425023,1.6106883765386415,5.725113285887468
10.452474163800987,39.817847104422704,-3.076788263524308,3.387292562224283
3.543567637007159,24.182110981218013,-5.578573278982088,-1.1404979709943963
-4.181533707012872,-0.729817349226942,-5.244032819541288,-4.74018022378026
-8.176137211205175,-18.565239751098513,-2.8696405192147973,-4.967163772480235
-7.035222950059845,-21.821648175325805,0.11255138772202872,-2.442088904228946
-3.506830454465405,-17.156774163982544,2.6752639063966535,-0.14414968043238913
-1.9697087540466025,-18.159458879973744,4.732351437215349,-0.5190172323615911
-4.329446508941168,-31.8248642355368,6.891531122540997,-3.3152126684579724
-8.234690411113784,-51.39746358358601,9.635601540535589,-5.89970054633737
-9.367899404033237,-61.95773784421331,12.533156163837702,-5.433943652788422
-5.357842656092754,-52.76312405732646,14.234276495972805,-1.0854940552547852
2.4018726028818955,-25.508804465424745,13.50210945380328,5.261979011291903
10.029602333481721,6.747286048960239,10.448154026659815,10.249228578777274
13.770679215957934,27.89432071193524,6.646695130592921,11.30839392585267
12.10182056431849,29.029151653281644,3.7936754832313824,8.209966005213857
6.505215919961726,14.709736442193009,2.115239998451287,2.834923130016957
0.4987622583436436,0.23944901709281102,0.0894202793165085,-2.2133601405895122
-2.7921056367216193,0.3695417056010802,-4.116724703148655,-4.8132385250670735
-2.746684628965473,17.642046739322115,-10.601870230009876,-3.872985710400931
-1.0845758864971913,40.4752085434548,-16.85352567119663,0.3729663695975306
0.28409183274020855,52.87323235920741,-19.10223897578569,6.2925591596747115
1.0208424503311615,47.01240788819148,-15.09841871435051,11.53991769646725
2.164648099132988,27.98712511767021,-5.9457070574758975,14.371322465567696
4.73243050360239,7.9661238073175005,4.727146235093797,14.458476521705215
8.602220334747624,-3.908343061363041,13.349278863719027,12.452121752056799
12.213870688930356,-7.262365176022785,18.124078231315266,8.975357878002402
13.092480727896588,-7.968711401336716,18.565247394144503,4.180256495576762
9.299619785081516,-10.569666420281658,14.242588206791918,-1.9715154809110114
1.1620687669011989,-13.294281736979839,4.86830391502641,-9.301815003504403
-8.41466529227434,-10.988001572817298,-8.166931902772221,-17.14418460795138
-15.809610261454138,-2.670048381805705,-20.92654505109838,-24.12739113934111
-19.054215403600885,5.789373578119485,-28.5846813227973,-28.32517530776672
-18.458831055860077,8.17035340594528,-28.809251699879386,-28.164444836256397
-15.462227855105628,5.9043287384122145,-23.761450291704417,-23.554102054062103
-11.435835755753237,6.948626909678076,-18.343852416529113,-16.073581225870743
-7.319398787175504,16.21264757594041,-15.908125879097197,-7.987278040633369
-3.569749089886466,29.058617490136243,-15.491562823155242,-1.1637461798856183
-0.19727217354411408,35.36330076513657,-13.38493345024958,3.2054195828559493
2.7175960249393096,28.998137696322196,-7.415286987019597,4.462798595242204
4.460238198700166,12.918819629575392,0.4780104698043486,2.6798533054378746
4.203974535419414,-3.4268284775221463,5.906814070235846,-0.9360269351707777
2.3480943953009428,-10.70515833268768,6.082952335146742,-4.16492603717473
0.730048999637698,-5.6603305334054905,2.2142226924081028,-4.681448099047599
0.8819820436438964,6.755643229029151,-1.8438700324624036,-1.272348693652512
2.2372181858252946,16.824174031249772,-3.0943908475194344,5.288236407438063
2.51896039908899,17.21998470374126,-1.7296864091025432,12.282690698783455
-0.09258241039225526,8.010654507972909,-0.3987131631856801,16.38156861265325
-5.26270150302488,-4.782373442388856,-1.369000714349543,15.779582905525032
-10.498849797984315,-14.61029995694011,-4.18760288922224,11.541672383383915
-12.434329728390306,-18.12674949488551,-5.821295811254969,6.790114487144609
-8.786384988283704,-15.474751278651661,-3.1642160876447507,4.305576689647345
-0.3240065208499111,-9.585307126493426,4.154135697603996,4.67497439260991
8.723392233017757,-5.6013068968247035,13.102747408747883,6.395715070092463
13.110321351459762,-8.745735310615519,19.433848347000847,7.368019772463753
10.475044265776324,-20.486530217267852,20.837780669466543,6.329108545866302
3.2015306020165184,-36.349384852241776,18.29014559733325,3.415404979157159
-3.5086408915027296,-48.21761256380625,14.710952900890648,-0.18316098908501874
-5.401477833753164,-49.60698152212937,12.601470261896011,-3.1814070604796614
-1.6526512296257185,-39.731156206329295,12.666807923944505,-5.108302237521265
5.064858323835892,-23.705104947274613,13.81643285379939,-6.319264935906857
10.257504433044554,-9.243001684365366,13.933547548895735,-7.065062852753051
10.262898027075103,-2.020510165358478,11.184301129479683,-6.80097410034983
4.8647544667415525,-2.5457617012078506,5.645598192320151,-4.806584575226247
-2.0938842987560995,-6.790466503577954,0.01454746096024505,-1.505278426677531
-5.355862862008226,-9.980670152229058,-1.9574080796961961,1.2202624535559892
-2.3829949580897867,-9.745979573392532,1.3261191366687097,1.3574787650067863
4.677883838835872,-5.695142020183528,7.2257378821807565,-1.4885533160992583
10.849582564636673,2.6570990757700472,10.246571178171516,-5.54961689570452
12.079549412156302,15.458467978723386,6.253696513393901,-7.969081291144086
7.860831149716094,29.70656447110975,-3.809028883047498,-6.701811618271371
1.3188270612766118,38.91802529120051,-13.950295399724766,-2.013739978824149
-2.875043122251848,37.64040182467102,-17.23142601505909,3.5249396256804983
-1.5707804554357039,26.447897240487755,-10.852422946387764,6.83833026918665
4.631134040625127,11.880323186806628,1.7544790272024904,6.648002876518728
11.745097787512442,1.5916449979953216,13.334105226501851,4.1500766040574595
15.250128623961608,-0.6229737876188781,17.67130433816326,1.398064877207489
13.059226791310689,3.2949784723778826,13.31200057536311,-0.7602963136744543
6.3709593181484365,7.283357530452845,3.854234883035416,-2.929017837844037
-1.583120905240585,5.651833128799437,-4.946837840492582,-5.65539324891457
-7.507497130621992,-1.9173216095043883,-9.13402997305394,-8.244307418730095
-9.774540460084701,-9.416230446589815,-8.946542677094369,-9.20539926915767
-9.264118233674248,-9.635068782654848,-7.9979882990336355,-7.5255216626772805
-8.375063983941004,-0.7371587791461369,-9.727576238270515,-3.339061686120353
-8.418399473842555,12.329727015494573,-13.87350421456987,2.3110409918902732
-7.967437641465147,22.05518832230121,-16.15899251238428,8.005265202156194
-4.6342403710102404,23.019801558641728,-12.035514390115658,12.318570084022298
1.13991616139443,13.902190330595,-1.6992146169166134,14.02095210523311
4.793240563495989,-1.768942581824027,8.19361232066783,12.261973290413934
1.1152628387695764,-15.804506496576765,8.58209287131029,6.970427839363599
-10.563325922506293,-19.183891593853485,-4.553183483332321,-0.4966484604492867
-24.549715200244442,-9.123404588465593,-25.363416453465526,-7.160172889694862
-32.18708818782549,7.167808912396703,-40.725262600981964,-9.699437707470434
-27.81840652147687,17.400550877423402,-39.29169496122259,-6.919490774918723
-12.939785360812216,14.125190140519475,-20.277826605083224,-1.252264850379673
4.4722612258029635,0.48218824164921775,5.307760816843848,2.642916338255104
15.370013204084357,-12.803404084298002,22.53135286460502,1.4081113394481808
16.115139943293684,-15.62306073851379,23.473547404753006,-4.36565633961532
10.799010811715876,-5.359234448074049,12.428625514429408,-10.614672944207562
7.177639820162304,11.703695033900152,1.3390986203750004,-12.89306372680594
9.813902788360393,25.055846305812796,-0.3083237766034796,-9.639015154225325
16.62172335712941,27.830530993715858,7.376698899899962,-3.3048641329994224
21.313109753690195,21.837358886244665,15.802133846632863,1.4337813940682158
18.644307637340837,14.815396019313255,15.477766797240463,1.2064300053191221
7.955857159472383,12.12452661562308,3.683184852866213,-3.396664285732151
-6.679339487141675,11.57157250831129,-13.433450819095741,-8.257919892756988
-18.83162950267424,7.0751367925954805,-25.514383541455032,-8.99546702497724
-23.233158943811404,-3.248604631987521,-25.662645761247937,-4.277422700453199
-18.76470989532107,-13.919740080049356,-15.146765800972172,3.5358683113003067
-8.875373610213309,-17.015364129978202,-1.5963456821806368,10.543641752118193
1.076104917193154,-9.50788048469744,7.311901132402238,14.052098801199476
7.246052916640184,3.8705539390116597,9.041855136029243,13.836582409025855
8.666195527342328,13.800122108466846,6.401284933707784,11.558950495936152
6.379340573367155,12.65917306708935,3.868770977928656,9.24482372957551
2.2994156445137888,-0.20602892223598757,4.0305266733204,7.915803672127494
-1.2859101190166906,-17.855091467010595,6.707413919193346,7.184466479952007
-2.3923936497903266,-30.6434150176675,10.219638351190008,6.022376655004571
-0.4924311630082235,-32.74303675005569,12.821207589185518,3.958824344493392
3.0299639524499877,-24.75476262646715,13.272113948565522,1.5010048922234902
5.881372097297534,-11.393645233661635,10.948139277678186,-0.5789077108638259
6.402159560060965,1.8470238236261571,6.134561746026097,-2.130206944262284
4.434565341892985,10.401359155093667,0.3399799520796861,-3.6427410857777525
1.3637301814129557,12.020061409412445,-4.073312733932569,-5.531467350943261
-0.48331255773997045,8.443062811757379,-5.121585375599588,-7.590040136298409
0.7406557415228036,4.521671978604765,-2.4787182451355507,-9.08939972095496
4.727706074898905,3.6095278268285615,2.3315480223509386,-9.308378102232835
8.877248111488045,3.763466716825361,7.153224811094696,-8.119590222085622
10.473133500051139,-0.2239576093422857,10.817825845784295,-6.2580317692112395
9.097380850570957,-10.753765595048195,13.584240147295281,-4.8947273058031024
6.55352753593202,-24.060932888186397,15.917304661978305,-4.65960631806701
4.544557141155351,-33.03341648575612,17.062544688074436,-5.064632373797349
2.9769437018857703,-33.150246769379706,15.339559346203803,-5.07217232887079
0.5828781262623439,-26.248632205251816,10.116991116075292,-4.185355575270815
-3.3463554909713906,-19.294220653373884,3.2391258359206074,-2.7416082750910236
-8.039664204059388,-18.797721099082093,-1.980559478966194,-1.2089680393225124
-11.614780133200686,-24.511760976885512,-3.5239436844049954,0.3681481202428103
-12.216894963176047,-27.83267947432668,-2.6265817424817253,2.0477653146923323
-9.371916132437786,-18.0789991805641,-2.950942484061368,3.509958958629884
-4.671798184236336,7.2020900876988225,-7.318235426129402,4.313983114493783
-0.7881480620352194,37.33072754175885,-14.586917766048659,4.527574876629263
0.6943209722148178,54.946088427698086,-19.71259886992135,4.725573671760425
0.38299998570644134,49.07919123093753,-17.69544780427597,5.267764746571875
-0.2045566126626302,23.488904178243402,-8.353591865535266,5.739800411474116
-0.6691607453897109,-6.4059747159544544,2.6160027832235717,5.162977956401491
-1.9253836123331258,-24.360206431024412,7.748029194705288,2.750729566088633
-4.494396035162937,-22.990756661195142,3.6262180240331565,-1.2982943531334132
-7.22858854215469,-6.161280907323823,-6.693863026479086,-5.447312660145298
-7.9992701002933915,16.020895944691425,-16.506506491383906,-7.441950432222692
-5.532646570390389,34.68484531797284,-20.707949467541535,-5.953424110940602
-0.7530876619694756,45.78076560955751,-18.950901387191113,-2.037116522450785
3.341815796841321,47.6982397784494,-14.509014309230269,1.2818099445742404
3.551583867323729,38.26822428460705,-10.599081388750186,1.3797906410700018
-0.6848304071297997,17.584725266983497,-7.887436734038278,-1.7284722908698371
-5.8860238535535006,-6.042081968088964,-5.217110167047687,-5.3910803014182065
-6.8191170553631055,-17.330769481766723,-2.0700421926637254,-6.431340412212564
-1.2295024689151874,-5.977063210337395,0.3388124335607254,-3.4548226995814777
7.5971405712392235,21.639134179602994,0.5629386470880938,2.275066452426142
13.418795120866754,44.512200482954825,-0.8111855723271988,7.711899729530331
12.381522433293371,42.65731472914541,-0.8645288884309943,10.022334871868098
6.004179861887796,12.836487077462918,3.245593468364309,8.47848080575813
-0.5233205826082854,-28.171904048773943,11.159490733484487,4.807310568782564
-2.6247042730919383,-54.51866641014554,18.450461258357624,1.5633597963870405
0.39050235241733816,-48.839294057580474,19.379947225799615,0.008273874467421147
5.197258304101375,-14.91072105941636,11.573426396979952,-0.38899356536831775
7.3803485913709075,24.174957424880333,-1.1477569010914408,-0.5388674970821076
5.264259405644835,42.54327698523516,-10.615487374900766,-0.30489863464432326
1.3572405149280626,30.380319033748663,-10.041990677029988,1.215755119631777
-0.2709591555208999,-0.7198851743967272,0.6901532505022274,4.173714722627378
1.6867546970507412,-29.69180800125277,14.630896542293257,7.084391392663571
4.286935596601944,-43.11093584562493,22.863327113551538,7.655426460500642
3.2969421953218916,-42.48127105045321,20.98531187936193,4.638024742331391
-2.6409621311239317,-38.20052664425523,11.675195206269157,-0.9374800920552656
-10.796872078741885,-38.51369989352879,1.6748024897090659,-6.34721985720483
-16.630150704798456,-43.09327920764374,-3.6343258639589715,-9.316881538777196
-16.924251881074817,-44.520609225609014,-3.512936177787837,-9.902819160163945
-11.48542612940803,-34.92293070260747,-1.1495708195741958,-10.168065433941878
-2.915153128212765,-12.583351353471251,-0.4218514063930222,-11.740967978513202
5.154226121771008,16.093963835494417,-2.790202026209965,-13.744347806898443
10.408309524710669,40.54204236384642,-6.293551357587592,-13.426743871196669
13.015323157016399,52.541693252462544,-7.23249056784394,-8.908537059057668
14.436354515650446,50.201770858473324,-3.390824057374028,-1.1454485491893507
15.188923628292756,37.53382532780299,3.7250634533420977,6.750568668332892
14.205341978427347,21.666402221946395,9.63696442249723,11.805504616606784
10.399673386994618,9.76806890325879,10.138103623168778,12.836882668896454
4.287646036625197,5.854056477367196,4.36429587521337,10.494122348985808
-2.2278401855199053,8.317585929857257,-4.652316199736965,6.31614549175715
-7.271962687278563,10.843852974651663,-12.10131991912326,1.7503679062435917
-9.93956902211847,7.446810614934942,-14.489230313585033,-2.317663350043098
-10.309685386590411,-2.2791913477755372,-11.652449550195515,-5.332308237317719
-9.054253183387319,-12.516414094238254,-6.469963907365925,-6.510845114457252
-6.878760013144642,-15.48079044486228,-2.5887514185658707,-4.882369041124117
-3.9983015644768076,-6.731110881480015,-1.9478405447195275,-0.29781388385080926
-0.3601590122826339,11.820595895479487,-4.02428493879993,5.623829297993752
3.2661379485972217,32.19331960754707,-7.086873748549066,9.991987894845293
4.754256469692048,43.94882318770465,-9.886355621684832,10.467064826043973
1.9854331360856765,39.977722769624954,-12.093019216989438,6.822771968527858
-4.86903618474499,20.878039795007496,-13.406109270119993,1.0373388159174128
-12.644797435900244,-5.573094266621107,-12.75772804138234,-3.8784495182461773
-17.027515283742325,-29.100371527865807,-8.848077767947231,-5.47092061204149
-15.336570724976388,-41.81108214558286,-1.6255658630134213,-3.2123811369798076
-8.110916030648978,-41.04650620527828,6.946572724444926,1.0051657375985539
1.2913143698421674,-30.39275384331609,13.917444774045986,3.9412777258344325
8.719481780766332,-18.042160261863458,17.396696297463084,3.3324284690712185
11.91207258179902,-11.414910078081396,17.800892610303645,-0.3063944570065804
12.024195160131795,-11.37687300252225,17.259296278241095,-4.111945093747396
12.239832529153091,-12.411119874777974,17.708038344706647,-5.250123230233372
14.20472016024116,-9.434176564444643,19.12118203086439,-3.1953080504883418
15.89474870472345,-3.4274480500184055,19.219535012101396,-0.150795636356007
13.599202965112916,0.9182751827928025,15.065736051426462,0.5415802623218208
6.124500974409538,2.043074689263739,5.577216125269653,-3.110970580728103
-3.3549201936034367,3.6551114862168057,-6.908168546304897,-9.957398193170564
-9.705939275010913,9.526558943931297,-17.38603982068812,-16.02967420706484
-9.899052681012087,17.806528663004848,-21.014404456516676,-17.19467842993198
-5.045872813019043,21.776361987553454,-16.23822609681626,-12.271268543497843
0.7430689788292383,15.87045018583862,-5.98394104632084,-3.888408633812776
3.354421425553959,0.5302026193129704,4.215943881548697,3.7312619870560324
1.454970099281694,-18.03531697180999,9.990713754466244,7.906440133086912
-2.8093836055809858,-32.0191500981798,10.746049408976651,8.719519822980153
-5.926720592154427,-36.66141598599734,8.86831919411436,7.763904452388126
-6.241501487873487,-32.28543984763751,6.556244800528585,6.246938753380947
-5.076775938551638,-22.422918149646453,3.7145525795126058,4.323409354208786
-4.624328348950295,-9.991217072873594,-1.021951923749967,1.8423928226452047
-5.249557879057025,4.145224113153489,-7.634028010450498,-0.637355384555815
-5.3994686557605025,18.501036628452106,-13.558058551046834,-1.7344355078600109
-3.805928013265753,28.247301832720648,-15.298838138881953,-0.32286018833362995
-0.9834727189392204,27.523680577244942,-11.254812887348235,3.0676718854266625
1.503177363836241,15.4499735159056,-3.261027069112693,6.033309696907987
2.606343796794447,-1.0407928195563572,4.365457143613885,5.965748959127338
2.443147310416129,-11.268473249646952,7.533930165650627,2.3913634528137067
1.9300803912190347,-8.013919850182717,4.894757750952484,-2.262447205855485
2.0571438374303335,8.064381428837978,-1.5605242154212082,-4.382095756295129
3.0758864710763096,28.862661413660042,-8.057757348695032,-1.9389045402209564
4.038158292284936,42.924778498197206,-11.425761503348355,3.8879253621700705
3.4334333531542263,41.49352146041993,-10.630216120653788,9.260350459322018
0.6515181910503858,23.802688645201933,-6.782324562522084,9.980863008357629
-3.274785196490479,-2.1077884244792,-2.1281416511853464,4.344959766323388
-6.4491303931776685,-24.00237117289539,1.1535573302472368,-5.152497570524695
-7.320430302714602,-31.817322449995196,1.8803468197673632,-12.851143130564413
-5.112159660577642,-21.709967586254884,0.3277090931527965,-13.56453596798408
0.13043225582470447,2.774179792545456,-2.0003978681601686,-6.243327777340691
7.111110409867246,31.657612988347303,-3.3511601483316027,5.2963120654508735
13.15818692292364,52.40807315689388,-2.9176032097396685,14.988897095940063
15.48270729093535,56.44214055962651,-1.316782238056616,18.163557755610654
13.061318572617354,43.894933963437204,0.06140789414530968,13.748418781218309
7.173450068451448,22.181961038033204,0.2213188419497631,4.293396739681394
0.16433533031316655,-0.1519228688833421,-0.7312694980910108,-5.682531456821528
-5.965742109924866,-18.243712710710003,-1.7414282516495934,-12.1831597177689
-9.966604917911019,-31.03557000048369,-1.5712985468887355,-13.8168838876437
-11.290097612249008,-38.913628748930684,0.2966339006632008,-12.04066711916438
-10.235747527887114,-42.20489345637564,3.220658840882323,-9.36475843099562
-7.742676613099341,-40.9371262586927,5.911582651221266,-7.195448386320559
-4.46075162346379,-34.76111065373608,7.553558489458305,-5.2292732777629976
-0.18460691850711633,-23.227257227758983,8.366550096242532,-2.5177148430159093
5.353685380400183,-7.053500087709737,8.980419397147358,1.227394357179492
11.283845490135532,10.67723473612598,9.471114515922434,5.198919945479463
15.649752439009564,25.030756950416873,9.290337891448898,7.9013474446870475
16.615153018707655,31.069419170998017,8.044439225496907,7.9451517155661096
13.32993337287214,25.428338800607218,6.001069473468614,4.870634569401192
6.0051927546686485,7.63428574436044,3.7304004430858884,-0.45580230040811515
-3.924046598058702,-17.936317380508317,1.461778054043973,-6.234893655260192
-13.461262772506005,-41.21993768305224,-1.007358537767938,-10.59003952719957
-18.76279466435507,-50.29342397236762,-3.7327928362483838,-12.15151044543087
-17.252814125729017,-39.20796862885063,-6.000857038200817,-10.23775867688922
-9.469000159681782,-13.185335870266046,-6.4404634524803495,-5.126584007027533
1.074431131120088,14.361973710982271,-4.083012698966884,1.6022442555174141
9.773941549952415,30.64136018268274,0.4164185548579178,7.463475017190048
13.164549357893963,30.844701293135135,4.673618138770423,10.45906283430977
10.509011423940601,19.550340423446098,6.0363991360793605,10.321974955887422
4.169260730106004,6.637659008143102,3.559788279491043,8.354859408728172
-1.8009640418870099,0.492333489294616,-1.1662316948255542,6.144436335684554
-4.383902082532761,2.358476876962309,-5.084873825248045,4.492520756777797
-3.5778803501042384,6.096360744570787,-5.843470409620135,3.224260783720702
-1.8262572581923708,4.158744195341869,-3.4102523446937782,1.5200153627476385
-1.5634835477969855,-5.434476052224292,0.08614641893319294,-1.5079072870610992
-3.2494258051531006,-17.62623220487481,2.1505148149588003,-5.952030293305742
-5.281378983540745,-24.990782996179878,1.9415133556614668,-10.463211885504961
-5.331503040326994,-23.495670020710754,0.910212222019604,-12.76463539668258
-2.152374270161089,-15.001911280419728,1.4532559748567164,-11.289645414866506
2.978074226576512,-5.82132909564821,4.496818147333054,-6.5094541274707165
6.421351968975256,-2.1671252490914266,7.958355944346332,-0.699411484977796
4.785163515488828,-4.409946148779822,7.709856511902981,3.5306360322635477
-1.6880813936736174,-4.91873714557354,0.8090874641186127,4.687036189485534
-8.49600458778772,6.075087747336349,-11.407800114821969,3.0557182071854587
-10.379714535185352,29.815997980154282,-23.17747039061719,0.49011742174031375
-5.868141389683124,54.21438611308165,-27.75001308538445,-0.6575319947995237
1.4767873536220728,61.60553678839561,-22.077698987595937,0.8528534419651774
6.01826384089391,42.992732219199745,-9.183983229164632,4.098691655633944
4.3491348488273704,5.798582728278181,3.791306916068612,6.626938443180708
-2.2815538780804343,-31.201579791808662,10.631579253949042,6.433469038933181
-8.728521426868735,-50.499769395097296,10.353858465819316,3.5554534582287034
-9.396750052836909,-46.10349559478489,7.280702020551507,-0.02854117832701897
-2.356342545337948,-25.19460783748587,6.794349486740185,-1.8601322609675741
8.954460781429786,-1.3085122458667338,10.497110807073646,-0.6038126701475585
18.22376911302634,15.649127540874481,15.007513315007907,3.1118411848758663
20.983733182313525,24.840384265374905,15.221255782608921,6.99661502424647
17.281427273247914,30.953179608713384,8.938485552784499,8.515819797688708
10.327213663406377,35.75740165204247,-1.0875302960376318,6.626032059399691
3.3290236907204798,34.40706331425685,-9.171064412924792,2.438013928204254
-2.2642032677176154,21.05115369386562,-11.027912398035525,-1.8219949096234405
-6.42053954111493,-2.544724670756175,-7.025894571724118,-4.517910370675707
-9.466993581958134,-25.193851194075883,-1.828711205686032,-5.4006148210750835
-11.344757017868082,-33.46880404197545,-0.6952358780228619,-5.160025050051175
-11.391936696553481,-21.271072472813582,-5.392990704315896,-4.662937290677537
-8.915279258448823,5.526405108480352,-12.980107877019384,-4.590389020045178
-4.388734558400719,31.866675266603227,-18.21103626817759,-5.285145371069573
0.11464042335048762,42.13911228641453,-17.327603003159272,-6.504959491200111
2.4136154898332305,30.18869206449301,-10.243361545365572,-7.327177952463124
2.3524594624219586,3.8826694135353232,0.016128639824617326,-6.5828345550431635
1.9082823313423205,-20.373856839485846,9.41149711848535,-3.7275571703043022
2.8330340294651264,-29.467751686825792,14.688772721425092,0.4004360642461553
4.547809422007766,-21.806978743580252,14.206068157406508,3.633906790691064
4.723989943354797,-5.952237508106161,8.27972152048463,3.7681313853106326
1.7557127063766436,7.030235976157839,-0.6565271169997515,0.5275918485423428
-3.479752973315643,10.610823078246323,-8.642188625631697,-3.526368799092953
-7.921789175531962,5.8123413763905685,-11.966172434377988,-4.561475600899294
-8.237826501883655,-0.2699503425900122,-9.287761651496178,-0.6225687919174728
-3.304978665960215,-0.4361349408559833,-2.446187413963173,6.46671410750754
4.174657359843139,5.0234104428482045,4.865963515602865,12.282208792246808
8.708587440014012,6.1883013578013815,9.636032535895827,12.929963034496597
5.924747822909458,-8.6063980503963,11.300826308970386,7.487430791603898
-3.54161429926447,-40.39016632605194,11.381487397236114,-1.680717276337714
-13.925125889441974,-74.64621585718302,11.477702314925754,-10.320589560182787
-18.377711222478837,-89.92156732420493,11.678089250115368,-14.422032259596278
-13.714654519824261,-73.63255215243672,10.987712596552484,-12.26733896221111
-2.2514551409405597,-32.37984075075926,9.08640764371496,-5.427697270091868
9.986689410065948,11.518998890647989,7.154833228165742,2.124480691183703
17.03688691807422,35.280230361572734,6.6214852212871085,6.398383311255903
16.457491614017304,31.797624003410476,7.181124396445551,5.596061706856003
10.38391758181035,14.111839834666197,6.360314686721395,0.7446753651298321
3.395567168256263,3.8860010939823497,1.4242988745478067,-5.221450007058622
-0.9739087233511368,13.073463544884685,-7.719334626891594,-9.041991401112288
-1.8506173637256715,34.684116812061575,-17.025913517585543,-8.683273463292196
0.20263504695689072,50.37879285642101,-20.053665645743806,-4.35035149291802
4.725616268042774,46.74106124294516,-12.506363836777096,1.6994218859099242
10.863846019111927,24.991545441812622,3.7028107417403504,6.688903024907364
16.122192412627903,-2.6252168518672705,20.7542488814788,9.108773736400144
17.264481834502845,-23.29487622586739,30.088044323826985,9.290366551627688
13.266401605159889,-30.59413812814789,28.28712554231388,8.56355065818532
6.959377091620298,-24.313404376695225,18.67109708007462,8.147846492574137
3.0858538184153517,-6.972651134619303,7.669950707112567,8.667763727653703
4.323831245850649,17.74852640546561,-0.283523916802434,10.049605215564197
8.722557111699116,43.206850887933,-4.969573360587247,11.376170575075315
10.638057033722829,58.22559881020922,-8.691627872285695,11.041894003400712
4.776703048189881,51.296693582926906,-13.192829862029765,7.656140824912018
-9.180995871320675,20.749245765231166,-18.190503074958634,1.1891044155765826
-25.075222925954495,-18.475313894625884,-22.25175718892623,-6.707945187174928
-34.11398694356265,-42.18571508633268,-24.42195305958026,-13.558843863275554
-31.714367332074755,-35.776049927530984,-24.863479266800518,-17.40895502572932
-21.278404662549917,-7.061965127258143,-24.291051165275743,-17.737703384662648
-11.053813650945667,20.776816715411556,-23.161882019659682,-15.412351438210784
-6.980908994511399,29.726731744410795,-21.40559101900845,-11.707980247981137
-8.307843433808877,20.95927483711601,-18.71968001377528,-7.153016479333175
-9.53300854863639,10.45531030489116,-15.046927638841703,-1.4401004930123644
-6.025120324945087,12.751873069589198,-10.839440010657691,5.224408570393351
1.9595541225000845,28.187652071468225,-6.860684349853206,10.84068921114105
9.822550321747379,43.35100402236873,-3.6093303612926633,12.402914514721825
12.721693372932299,42.9656453008781,-0.8531600614970768,8.551295886412793
9.65864600511638,22.98242397343553,2.212538552689457,1.3824618826938655
4.083935409317787,-6.231382570495367,6.198991913339452,-4.781218328999635
0.45122376158313926,-29.507042053879122,10.797986819265882,-6.714398926493814
0.0368746258295455,-40.19574648616143,14.831982647208536,-4.638696605331724
0.3120231745426868,-44.05774023310354,17.15586768029748,-1.6315631323477235
-1.5457871754356052,-50.21878964587713,17.58777600889047,-0.8337521352557742
-4.972750398496423,-59.272643929596484,16.89706830845174,-2.806818053377175
-6.182158254355505,-61.160745974588274,15.883321656260332,-5.036123418002392
-1.820852835990464,-44.86253003175138,14.66280091756077,-3.9676171625025742
7.633005141761414,-10.42912694412228,12.974677587516807,1.9036147487550446
17.604405074763275,27.528421233073384,10.945819359157442,10.352459228545502
22.183636484318694,48.1411291483989,9.194221916372582,16.642612494945713
17.97493283139276,38.6555056129392,8.141704598506724,16.719811002130697
6.660735647987217,4.446637234316401,7.473045050968497,9.84209869036018
-5.755838312449799,-33.77081982900876,6.412583825358933,-1.134737271561272
-13.14507852228679,-54.91059916770908,4.491039861025476,-11.561848295648371
-13.77595695233647,-53.15999360802401,2.0893578454093564,-17.455948857214505
-11.002372862114528,-40.598797039532585,0.36879320336533356,-17.316556038258394
-9.372023191165207,-34.208848929749664,0.5545050845840731,-12.50551001995296
-10.051849055772484,-39.33497034489142,2.8967296998154235,-5.9762161868878385
-9.945998438671765,-44.76608471420373,6.111756318668506,-0.21049956771834177
-4.939729077264355,-33.33432267484355,8.034503683390662,3.9410694977961045
5.942849911996163,1.7575606188749224,7.154980132833577,6.628540489519642
18.850664373408257,48.631231940506844,3.7071107455971495,7.669916280359385
27.117362526406755,83.2967806584214,-0.650099706287552,6.311885016397785
25.787729737160657,86.69376937072228,-4.1477580663748945,2.3406702129599783
15.556820322888477,59.41883499034705,-6.006232230887285,-2.9181801402376486
2.750281327384885,21.85108772716312,-6.5648717609617115,-6.943023136868182
-5.205875352694915,-1.1797267482491622,-6.68746769725167,-7.439076787159994
-5.146393672460146,2.007283189881425,-7.225970561705341,-3.7672651328887614
0.31378933959355343,25.13861703687821,-8.970574827563459,2.468360796905724
5.88919289006701,53.309884693589034,-12.64306506036101,8.101420047360538
7.820811544603025,74.17205054293959,-18.193341523207195,10.211071062134089
5.665794269835503,81.00994170767352,-23.663820845960398,7.939907209136069
1.47111334803282,70.46635967649505,-25.179393919597157,2.837404856739306
-1.926219410667675,42.80217957989531,-19.19262856977727,-2.4704976815947823
-2.3894089894241324,5.243373802202983,-5.727964392295853,-5.834106870037606
0.4606419676985214,-28.253084997922432,10.423209226860504,-6.12686192542885
4.965043312557589,-44.498135103811954,22.295749006290478,-3.2378149262536873
8.170725260524549,-40.93230005154018,25.3541118874202,1.5840265813144456
7.194913183148889,-28.826919875512406,20.237692935241178,5.531514689358089
0.6830660450511751,-25.056360280168267,11.41348925332999,5.403199716722343
-9.940666560348902,-37.292037962547624,3.2233819051190813,-0.18825578014954644
-20.29936908758546,-55.277630245415786,-3.087953158846407,-9.56413925880444
-25.231800368719274,-58.324801340327355,-9.079908318153205,-18.965600492227264
-22.65166217762477,-34.82719135491588,-16.287291052707115,-24.81488488450966
-15.582175748383749,4.153277372969207,-23.52552680769786,-25.347708749563463
-9.556936388243912,31.946352574463113,-26.7273362525517,-20.780875911556162
-7.500841126340067,28.78166558793493,-21.76106576629492,-12.499588197582975
-7.459498251078492,-1.4607968370258562,-8.198560842257868,-2.0783888498779333
-5.445038792922165,-35.62272121711315,9.271841185384721,9.298113088598614
0.08603695068397835,-51.114210040031885,23.484365609784273,20.779770655543928
6.822765507159753,-42.35962426561341,29.512744992563757,31.438431316687534
10.904339300982711,-21.239836919593575,27.4157822432072,40.130059897986385
10.049765520875537,-4.557715833493553,20.95689603687973,45.79959201702566
5.066827046755639,-0.6604622704676739,14.142610549791199,47.626859916313926
-0.6753275861894016,-5.233197852433124,8.93607274227466,44.671940330056245
-3.321491114162287,-7.9061104529228645,5.466521868375492,35.7975790266988
-1.1566370271049111,-2.7811437296160055,3.333791554547086,20.734392599939017
4.092038300538616,7.121710794185508,2.1240394292943656,1.5911437316460257
8.676844321690886,15.313641808321202,0.921345452494548,-17.01660006128325
9.864570077416408,20.155499919976656,-1.8306138280159405,-29.91029578281521
7.784200208588255,25.849544220854003,-7.08078995975141,-33.97221566165549
4.751135781451421,35.28127088662565,-13.40362990372368,-29.58355258672479
3.297454839617937,44.23240304068186,-16.916601978364206,-20.282347845921972
4.598019834308711,44.36734106658304,-13.932925844191033,-11.135810325851311
7.790786244362061,31.36349595723826,-4.493424284047003,-6.485881664938972
10.264198463607128,9.356320418052425,6.585014257546769,-7.903041999083804
9.184001644339375,-11.762271331547609,12.590431912781604,-13.531470875956456
3.621503727805232,-22.783567192967233,9.579941695870602,-19.44010192521861
-4.56605923158695,-20.601520071315342,-0.9493362851726873,-22.086327548872113
-12.068026709272837,-9.645917499802747,-13.327557934812475,-20.186297405332546
-16.27487169511988,1.6266876606285428,-21.55395237164456,-15.020761833847047
-16.28942926097623,6.938856189918833,-22.659276684953767,-9.364089854922257
-12.677473444812906,5.989027633276071,-17.594865391355356,-5.724479287995315
-7.104459524522372,2.7903208880618906,-9.913621788605237,-4.797875923599688
-2.0473242221331835,1.316386595863902,-3.7161966187580484,-5.231662337124733
0.21817057656646674,3.2858823188806756,-1.9006808393169468,-5.0825959214185294
-0.8071516753020519,8.75855171258938,-4.936867035945649,-3.6746590279666793
-3.2110015058619346,16.534618050096334,-10.358109709792124,-1.9055948930167137
-3.904480491780089,23.273438957342414,-13.555403020090054,-0.7550542689132884
-0.8591676741040812,23.741878483712856,-10.157539286133828,0.10058170159901755
5.32560780859081,13.907842889169117,0.9356735596091524,1.8976988915486028
11.61517120543074,-5.019859080932115,15.934996811587158,5.219728575137282
14.583812858424368,-25.12190121612213,27.750895999153613,9.150576489950888
13.181153590944847,-34.83274249522192,30.422917437567477,11.99074061075539
9.902691222830597,-25.84005893349444,23.360838675716103,12.692426336478116
8.6651290647491,-0.30562291209976933,11.89581715910253,11.710219383047798
10.860794458511956,27.346866316500886,3.459021223574826,10.60945596338709
13.600030678147213,38.16688035320523,2.358273992719239,10.651893979678425
12.258260600757257,22.42357493310153,7.079646518719918,11.40362056723478
4.772141769673973,-11.77334204837039,11.79104243564423,10.757869611733984
-6.581067528931721,-43.86430388510826,10.7554741663933,6.783262556169979
-17.042984092155656,-56.61204893401273,2.7232213966751706,-0.10795281184821139
-22.45394289827919,-48.56676609220575,-7.657122896705271,-6.874375104720885
-21.192673100715925,-33.01070124630173,-12.79038791479488,-9.920044872237087
-14.617132604732028,-25.79280600907105,-7.7967565789161135,-7.702536533483719
-6.290587177179255,-32.82914027080401,5.336685819633424,-1.763811476059777
-0.0006333166579520585,-46.14672099587663,18.631588113449723,4.299634596848756
2.5617351093239433,-50.14133004229593,23.53458776428982,7.012946204825118
2.586551119459685,-33.31786227501565,16.71812867319407,5.143963535073281
2.6785643293015577,2.6828208959906257,2.0827462204753675,0.6048081935507266
4.716230033085156,43.655895167178414,-12.083814632107057,-2.746798664149752
8.884928245988903,72.62992294241614,-18.480856017651853,-1.9353886133475389
13.931940040703724,80.58277503623965,-15.052051226280032,2.8635378057063203
17.753145778457057,69.7922421531046,-5.569334072375923,8.638419059274945
18.22084980562343,49.53834689788511,3.39623186365879,12.043833825477286
14.467874464316898,29.940876921135267,6.7106387950597135,11.725894105427235
7.775236799816464,17.914205124357885,3.323488020032093,8.773043922688618
0.915191920219044,15.096419912092692,-3.862162732679995,5.593682031702639
-3.62020150360073,17.575500979922595,-10.145486972631574,4.371585821069528
-4.871500366621833,18.596467895573063,-11.702580875061702,5.823674183265892
-3.484596036099669,13.355329901144067,-7.608902548073503,8.725052312227072
-1.2961545947645232,2.202289448871285,-0.486589661661439,10.65178485112329
-0.7230624933998869,-9.950241527795534,4.6979544983390955,9.63920501533979
-3.4524504670923752,-16.713576748196918,3.52218862774579,5.433921841211611
-8.908468641480264,-13.931650619740168,-4.755109717956643,-0.6749460691190945
-14.276191792602392,-3.0908049514495035,-16.084999647017966,-6.9417996854167034
-16.653282650598914,7.772929653905576,-23.836803692366928,-11.950535822241507
-15.296673240023448,8.524703767993712,-23.086025601255837,-14.786860525894616
-11.76317626423393,-5.056178375209573,-13.906715210533346,-15.193767912939261
-8.32057064591866,-27.050008231800618,-1.2714312468188673,-13.875404408145474
-6.548602199855502,-45.774728871299274,8.254761514510452,-12.314172179426873
-6.821688599565864,-52.41383796054602,10.612704813128763,-11.782147284454684
-8.086511057929803,-45.51673236219693,6.429157933886837,-12.267851439409384
-8.074850878612818,-29.075234864946182,0.05266742349988287,-12.350186051522904
-4.7514227691069255,-8.939811343007767,-3.6571720116977167,-10.299964687681834
1.6882319828940555,8.68260240837713,-2.443739547680407,-5.708359511061712
8.460236290276443,18.175413262847485,2.420514259022568,-0.39556096456207457
12.251451203439721,16.931154327748587,7.663493971096032,2.4420710373832466
11.666497168362962,7.193256864900091,10.471676797068284,0.6447253465458731
7.762122404737923,-5.619506619425147,10.099299875231365,-4.830340554928266
2.784128812244376,-16.779985966243405,7.873452960569178,-10.320529777271592
-1.2517778350692903,-24.230872393285466,5.864241424967567,-12.354937320204819
-3.324363619333513,-27.429128158185502,5.103299994737352,-10.402920745046858
-3.632413755586215,-25.63503785552966,4.669285874222703,-6.8555753145921745
-3.0869178370344517,-17.836668050467637,2.6750347898532674,-4.438836465121721
-2.0061395500425068,-3.7906955121831545,-1.424304784464525,-3.6872483736890103
0.7182952892275056,14.99074762874451,-5.464663946287432,-2.6878366646274205
6.495809615498543,34.533172246732335,-5.903742432785509,0.9621294098613442
14.679533667259454,48.53205002116774,-0.9499832505491935,7.705410501056808
21.63823548625473,50.551441154655905,7.35655842184766,14.963339457152424
22.684576438619047,37.8747033039542,14.051035751777711,18.455352901688777
15.391322460143531,14.242809746313892,14.453770301146506,15.308789949878303
1.7486972306022899,-10.798852049071009,7.308605172319275,6.699821595772661
-12.229691626654578,-25.714811028931347,-4.226000928148388,-2.4016559330276572
-19.44036652259779,-22.37528211223071,-14.366040491472923,-6.580414613223646
-15.968524262136464,-0.9336429155249918,-18.287422814723364,-3.786383671168406
-4.058006202151223,29.071895045385045,-15.251274749024164,3.472346475612512
9.034252239636908,53.79197315774367,-8.919488792708671,10.230401409988206
16.095351885327727,63.54249574389445,-4.351327394644782,12.502018691306617
14.83950444115283,57.562342948109446,-3.951890399189484,9.566399424489893
8.52002331274296,41.260111013513615,-5.727036254021455,3.895597246096908
2.456408958409943,20.210146686151422,-5.218556461877502,-0.8769157659192273
0.1736503808011472,-2.223056729447158,0.6450701669439765,-2.4042763983034825
1.9628586936445442,-22.548787371582954,10.833832851399501,-0.7130395946692223
5.697669097367617,-35.09361145317573,20.4881184924663,2.665670456175935
8.520918261557437,-34.249227845300055,23.959952522164187,6.259738928578361
8.519892478727094,-19.488012252623715,18.742586183092953,9.217642702478026
5.690147431597089,1.7604041235371328,7.58659948936113,10.808891260785723
1.5197374729574848,16.91252761058342,-3.082127731928663,10.270757894080699
-2.39720218986765,16.015361336693577,-7.604945572022005,7.616632260101938
-5.285192752743214,-0.6521278453569973,-4.97494180980619,4.250384148705478
-7.032075825375125,-21.848356224701178,0.9246199351058545,2.207814247669447
-7.848341086532548,-33.75027440615895,4.685177652881599,2.589099868775716
-8.410258381428342,-31.239748767181556,3.444256919551296,4.721142309857479
-9.779946198417786,-21.847119139872095,-1.4108777261290955,6.649053922808252
-12.50466185646599,-18.40537982811915,-5.876442846143563,6.301254644837949
-15.816458459945443,-27.39677462445987,-6.761964821400089,2.578083750235415
-18.075708602193107,-43.64528479117266,-4.130127872777869,-3.9597470998573567
-18.01031753707773,-55.060452510778774,-0.8643539611628267,-11.150933952597383
-15.455044782080869,-52.19150727973355,0.01587764011031437,-16.321586552081957
-11.306942899620287,-35.004155386738745,-2.234305089483955,-17.84298730707329
-7.215709153203439,-12.810945685102661,-5.901680748905569,-15.938710825100454
-4.8896202790373,2.3131186008960953,-8.502682807599252,-12.200325032530742
-4.713681997754969,4.444566276989533,-8.496558858869845,-8.50495284318862
-4.839534006293992,-1.9225296608864921,-5.7729659419714645,-6.19510241704027
-2.5176403044967826,-6.829425009391211,-1.1558529631767878,-5.629060080351558
2.9659980557667915,-4.802292376785695,4.176814600453117,-5.9923652611970795
9.02341530245386,0.6644203999677959,8.934903845175825,-5.700697150597464
12.073825816144224,2.930776918163124,11.865911728008921,-3.5367485233284905
11.149432654830061,1.2347977539863702,12.139241691976686,0.2945317498788702
8.963639750480445,2.472248026776637,9.871672360354525,4.233164797812586
9.51095217358597,14.180022587235413,6.3366883292478855,6.493569544204581
14.646243581334126,36.405404478405664,3.4587649217865972,6.213651437653592
22.391319964487348,59.992792488727325,2.643031499309907,3.8866633884578845
27.95056495012078,72.50913304178474,3.577197389580518,1.0978894488992965
26.845209125287216,67.59029644271243,4.000091724634072,-0.2917493457025449
18.354054458163798,50.83076814588116,1.0857588149122956,0.6285263231010031
6.595441871058908,36.260918143810116,-6.12260340747489,2.935896716108532
-2.2583996232387293,34.25468050325351,-15.079089154909248,4.366099755227205
-4.736320637408229,40.94006997889293,-20.68634619242459,3.0740101457068203
-2.6215794401282984,40.28375431565592,-18.731878708842206,-0.9092908984653946
-1.0505642455008872,18.63080059340954,-9.416111714634367,-5.869347140351382
-4.09818314728308,-21.404108973369382,1.9880256372871479,-9.859494244316972
-11.674947633777066,-60.72253761437901,8.339060460425332,-11.92759616263774
-19.792145070879233,-77.33540074474985,5.581068649674847,-12.22086169423071
-23.491947428775234,-62.08470999981887,-4.331800472692024,-11.223233121699495
-20.301158190820164,-24.604874944685378,-14.87497996767407,-8.92954459862815
-11.94572303070276,13.563760920730495,-19.53648513563877,-4.729406662222723
-3.028087427517741,32.834729064339506,-15.857493230493404,1.677899722167891
2.405419825333128,26.921967754764196,-6.177959819789491,9.03096428045611
3.4732842504195416,4.672813461229059,4.580791718145657,14.434568587252114
2.071049200190728,-17.8554582959423,11.863265232233063,15.176144694135328
0.48554346410945687,-28.537382783047914,13.501335956576419,10.99975689672233
-0.21207167400456595,-25.425796918936776,10.397307642336305,4.5267187140012215
0.10056571618961398,-14.88179085451343,5.770089589804924,-0.6639133930490556
1.4004677779821595,-4.876553352703198,3.0606302897967845,-2.382350981654664
3.584303331854704,0.8136674468912239,3.617273460614196,-0.625646959182483
6.169905392637796,3.945596081185489,5.974571476890728,3.2036392467677066
8.416358512286983,8.572751161786446,7.43591437798133,7.418191194687094
9.72598928929608,16.017805756610187,6.59230716906507,10.722284125265091
9.890530907329223,22.57271730513367,4.530763413227079,12.439583190312183
9.219346567365958,22.849852372957383,3.659772557612366,12.398943258032514
8.483427500548709,15.941849649618883,5.2061738349661155,10.634975687391577
8.21952152610583,7.183752221956449,7.739738486461672,7.342956083113845
7.69757085186302,2.3143880468421547,8.337618838791037,3.253451084460886
4.990669874075611,0.22915473211139056,5.497814792075399,-0.22572856916088255
-1.2202137287743884,-6.547259597790684,0.863228913819715,-1.748800430173585
-9.799640661508718,-23.036432092966198,-2.3065127793037763,-1.1260678450634083
-17.480733306914825,-44.02118265909044,-2.562584393240038,0.41616364106975307
-21.187680441615367,-56.152403065498305,-1.9279631280304141,1.0507974872019996
-20.04802494301803,-48.75202259463211,-3.8084601601122063,-0.670507926444036
-15.532031763070668,-23.73830921562615,-9.210494996504119,-5.289546014005679
-10.185114737558427,4.240191597354356,-15.194065148360663,-12.055312820907302
-6.035159546901818,18.373968582030617,-17.119725750383022,-18.59645584168409
-3.34903306279069,12.797719965674688,-12.430911793100735,-21.51660908514863
-0.569782663393354,-3.0881856393296436,-2.6033933213947478,-18.4014515752226
3.9100926521643333,-13.389286176416878,7.8956544740509695,-9.925328846224065
9.396762522175672,-9.49967712402012,14.28474914659695,0.053346739260106656
12.769627991286368,4.193327007234057,13.948969949172238,6.881642359126177
11.42166264950941,16.975587313304214,7.6868451615909255,8.127462957927296
6.283441666160197,22.416777542129463,-0.7753683639694431,4.8618359161142894
1.421446404393701,22.300124758139308,-6.975800178491411,0.40347537590405896
0.5199642715455811,22.144991225163277,-8.404667010132874,-2.351422646069889
3.857624171646927,24.638033174447077,-5.712319237498965,-2.9520372817713727
8.390978760536843,27.026304690469264,-1.5686693336913695,-3.1861931370814114
10.320814321696673,23.730479582179715,1.6030891699041325,-4.826410228036407
7.896596542559957,11.782333917826545,3.0588468705144836,-7.417778696958235
2.6861071163293357,-5.049081705929224,3.557418792463261,-8.320353009735467
-1.4712039587893608,-17.447778251187287,4.239695091216249,-5.054925252553325
-1.329592669382294,-17.28104466881554,5.594613935123257,2.2852244456755577
3.209720263165526,-4.368402197592118,7.155951770973612,10.74305135266687
9.187522000363497,13.180784017147312,8.063684382438135,16.421156303357275
13.168813145634058,25.117233068380557,8.017715208698021,16.97432590854413
13.544449502956313,25.286168221947513,7.688761199597367,12.972861827830537
10.513258936179039,13.150216112536109,8.018055442929533,7.380554273127623
4.809411560920273,-7.5748798857749655,8.951852342703178,3.4572373221388344
-2.67773570538926,-29.58453620941718,8.874240408007909,2.4502413993346726
-10.340922684649096,-43.03581841660827,5.531861266202881,2.913276443951156
-15.950739700410676,-40.185876480829265,-1.99354890823706,2.3483194761670956
-17.807875191410595,-21.652906155333305,-11.73429468300004,-0.33674893338182743
-15.64999047448981,2.3189969492783926,-19.20812625684968,-3.894033352621896
-10.541663504637791,18.26424553346991,-19.989484456923826,-5.969917747297653
-4.40910893600594,18.343759584150828,-12.940238229237448,-4.993869131360424
0.31724974293034475,4.666023741124998,-1.6399783705018203,-1.0966357128563753
1.5274412174754626,-12.84109740515552,7.40542599353431,4.103279416332156
-1.169968676574811,-22.523022365356052,8.828562177162558,8.235327400440891
-5.760426277175884,-17.747118871501545,1.968351695653179,9.202648773542183
-8.914930315961689,-0.8349348587415591,-8.640623096464436,6.317513201309112
-8.138013433088432,18.75912557073997,-16.315991823620916,0.7648029430204293
-3.3599488328214613,30.9891789830156,-16.69993750435405,-5.219904971162707
2.881809205254612,30.981955254335546,-10.44723298754364,-9.797356430377514
6.709931805296389,19.927110709465598,-2.272803622276372,-12.28673804357593
5.312983118013375,2.837686378895958,2.677886870246868,-12.877661495719122
-0.7149350395930769,-13.157019157422248,2.231877859720327,-12.025145055186968
-7.198623674460581,-20.227688663106314,-2.004118780928666,-10.099442144994484
-9.244260424100624,-13.341045045653674,-6.486268360859081,-7.220985208235682
