TP9,AF7,AF8,TP10
2.8130390152691733,2.666434637204726,-6.214321061528394,8.208114537369184
6.886672130393995,-83.83433099517171,-89.60709602269047,5.738224189475627
6.959977477923323,-77.02846289520151,-86.08881714907211,8.004969165839242
3.440523807580115,51.608207366673106,34.28477517559492,16.623669716595032
1.1621671271154066,247.8426258605122,226.60884143572324,28.878733606425026
4.834269844371755,416.2714504617175,404.01599154472297,39.61407330361208
14.191104109700586,487.99966030938856,496.1654488359187,44.740441437932645
23.6843432756716,461.8623828963131,490.2308256178556,43.70452285510639
27.203869150869128,391.0099336261373,427.2305674522405,39.10484478971528
23.252247312024533,333.38161386175534,362.8937305985203,34.131988244463436
15.633327929634024,310.63341293276324,327.41054871513353,30.253816563527167
9.450825330960688,304.6360956724906,313.13425952857995,26.84457882987708
6.717509915178373,284.65080421977746,292.94288416537273,22.377542523655055
5.466882851926972,237.0035794507929,249.05700942218186,15.769324492729194
2.2876401281259415,174.9454260290915,188.60648494746047,7.046518212067997
-4.555167427202642,125.60512659812795,136.1693472410421,-2.731798038014129
-13.79272132841453,106.67658713047969,111.99112338241594,-12.231590549088821
-22.17591140807436,111.00062568893539,114.52506192319927,-21.00412334447028
-27.001078727540264,111.05364957539157,121.05224072042483,-30.16598300836784
-28.34491803277574,79.75028913230224,104.78028353799955,-41.74533757113682
-29.06789270976011,10.154299589397944,53.837930124011905,-57.01165525949696
-32.285372266677875,-81.53743804975929,-22.15827415672234,-75.14965113269047
-38.52603118172586,-169.17166422569838,-100.45755022793375,-93.27696935878252
-45.300943514092914,-232.28500208848934,-159.54281674647083,-107.63303839809411
-49.348248377079884,-262.969957140196,-188.9419276515184,-115.15729833456946
-49.234518240809294,-263.7755305712954,-190.32745880447266,-114.76920755784273
-46.137200377466925,-242.35172160087515,-172.50333271888908,-107.76896986707989
-42.66123007257294,-207.02093733154032,-145.3722215877973,-96.97927364322959
-40.84041790696001,-165.10081177307504,-116.75797074013775,-85.04108339604424
-40.498334108178206,-124.21159166652077,-92.72368833795096,-73.06548282003706
-38.994350604183985,-93.38748714643117,-78.52988549668811,-60.48456519165519
-32.93815701310121,-79.30555876312624,-76.94970757643837,-45.749633801429546
-20.91361752592257,-79.14448946895607,-84.99047280311876,-27.07604885272811
-4.856592158405096,-79.29802510374262,-94.26083819347298,-3.1311436167624964
11.263251633938664,-65.29657487288662,-97.33802154363072,26.013327510485496
24.088770836679327,-34.52398695129822,-94.4837802611558,58.04064499152014
32.41861227093615,2.1809216214197122,-92.51122968729189,88.68435208438204
36.9348150352548,32.30016853623502,-95.48609397710648,113.48280531957703
39.21110121715602,54.45665189483713,-96.65398479500463,129.94007154445885
40.87098536496319,79.62506007399358,-81.02832998885901,138.60205844431667
42.851253624219055,120.11344069044466,-38.160893710452356,142.37563453630423
44.921724864842226,176.01218626098932,25.316445882730203,144.53251929217038
46.04357848829653,230.18438142381967,84.94322689243882,146.56285977251298
45.38414788218677,257.02957491096976,112.3872008939444,147.22747851155137
42.86877777280882,240.0743215280721,94.67770599093777,143.50850342753702
38.78661124749685,184.45826353544567,43.31676404861934,132.73825412468886
33.332758202858294,112.60504102690099,-14.707929639003746,114.22137416068433
26.863509038403887,46.76828253525455,-56.1680918640561,89.33397144831684
20.295542922379973,-4.676153894968254,-74.40987522535328,60.62759479508701
14.789844855094406,-45.55188646057485,-76.57755347516955,30.984355439122723
11.02841368766284,-80.72405876501642,-71.60339594154183,3.0396045791469932
8.958554868775185,-109.71958476971753,-62.35625702124433,-21.478320752004638
8.043512092897375,-130.41698690432486,-48.22159293342184,-42.276442692769784
7.49701567497653,-145.58622293818067,-32.514369635862444,-60.1879057251205
6.5442815091793936,-163.44363712946793,-24.67857004326163,-76.03104464625444
4.9696283384183,-190.99765747380084,-33.374192126462056,-89.65451586234623
3.376732449698748,-225.9757939147505,-56.652531809494675,-100.01815898249016
2.422609625269896,-254.80594714502638,-79.78091826885141,-106.05635718288421
1.6983215432928942,-260.4702161180847,-85.11404150818053,-107.46746376436242
-0.18627124380100335,-235.90124208502505,-66.57276643518934,-104.92417046821362
-4.163472370933549,-191.3223620691365,-35.32090024947659,-99.71602016509543
-9.60240189072827,-146.9796513537495,-10.427128035609385,-93.04286317821769
-14.778510738449281,-116.71559017797985,-2.6708326711278985,-85.3717013775386
-18.185801129860902,-98.19995954029444,-6.561913970803594,-76.416948519103
-19.321495617223036,-78.90191145571627,-7.464175016562418,-65.86306586806234
-18.67885738312254,-50.10585858201723,4.076352902138617,-54.11377857998598
-17.401018689031094,-14.346155712464842,24.620800305108723,-42.223071847920636
-16.648197800117536,18.85824890403372,42.51528437353749,-31.076927663955672
-16.71330985288933,41.98639006093461,48.707219699729166,-20.713031049557262
-16.69331091135684,54.820178400688384,43.64904413184672,-10.421680496637562
-15.404338492733347,63.740453597422274,35.837997050637185,0.5145655582541973
-12.727237420682112,76.835040429124,34.84869537771028,11.987035086467394
-9.813235237448911,97.88889749737048,44.80419453535635,22.693502171709017
-7.92766081285895,123.5724865123509,62.7771324079563,30.69371223623621
-7.327039118509976,146.74437968099093,82.43849004033906,34.783860832820004
-7.264029732220321,162.63386386227734,98.90237476164437,35.60212919058313
-6.779921800460248,170.83699203812466,109.98620017355388,35.202264981017436
-5.459969247718023,171.48520306046856,113.59870971465529,35.25824733260143
-3.793104943550128,162.03809998824414,105.95329771047743,35.67600841485914
-2.887580322151846,139.94379651653304,84.27772179209022,35.08169877741034
-3.331416377119769,107.58334397927857,51.536794514808726,32.623144386555666
-4.017645022434487,72.76074756862955,17.3934947004545,29.155291924721112
-2.649547520855834,44.47027413985889,-6.556020030466738,26.639339369317845
1.7735031992423345,28.98811443192591,-13.461918611609716,26.3797777145661
6.926560777368593,28.497869928632745,-4.84245255873394,27.696611386742276
8.293350660362444,40.56465713696385,10.855198611953572,28.208820029496625
2.9226535195819667,58.4699064030956,23.69685850192741,25.647460485317758
-7.7065171103305445,74.21101969676539,28.394942085915154,19.820264890126126
-18.35824881780491,82.4560406245439,26.545076399079285,12.973523033686153
-23.522626617707697,81.25863604051744,22.870360092872392,8.039119031304338
-20.884836928491254,69.81413753376316,19.293896048307115,6.288711975415061
-12.480739274759319,47.950983292357776,13.173168958322014,6.583894939249603
-3.014812137281378,18.557557450636615,1.2093172933502825,6.7615901775941785
3.4010260157456633,-11.363753488185889,-15.627295889270387,5.554528816718843
5.684491554610715,-33.63726911919065,-31.12953270404116,3.246470970529661
5.5402133086458445,-43.15042933158036,-37.70349683354546,0.9003948952326971
5.10579982090436,-40.56058483911655,-32.675784733758626,-0.7312903660690981
5.05674012228279,-33.69675385933523,-23.13775046617185,-1.7465229999118155
4.85373834061441,-36.551252326218794,-24.47479668893801,-2.9756947285761384
4.134523699097176,-62.067650728060215,-50.25481447097021,-5.373897393837865
3.2745908955733505,-110.10345661714183,-98.94116491298993,-9.218086182592065
2.795370629371122,-161.51303905715034,-149.33222135830252,-13.709188260428261
2.821707009942029,-188.15332864390004,-172.19004118949837,-17.422929918285515
3.201213840087317,-173.32320660073214,-151.24499726974608,-19.214804406704793
3.731652403459012,-124.76497554345066,-96.32850429546629,-18.735291180352345
4.1444823390965295,-68.5514879072595,-36.71254338500314,-16.335614779599073
4.2315206853943375,-30.105649230297328,0.10648073189945727,-12.845054836861973
4.1829223812399405,-18.63698060110085,6.420591746775694,-9.433627625382195
4.528129455380874,-25.579031325559164,-4.79237820236687,-7.2293600350644525
5.5392672514477335,-35.300502412813955,-14.48875936855421,-6.676172174524126
6.8741949223130465,-38.39640589353842,-13.795698472666421,-7.28302879007629
7.916548566541381,-37.309842836099214,-8.603965627367808,-8.13018261485585
8.209168075381507,-40.14808179265769,-10.353255196110338,-8.541409985062481
7.441750174113512,-48.92265903847956,-22.58833228248892,-8.211737483395165
5.455782537424517,-54.80711259686906,-36.02829865189612,-6.988745846897018
2.706099444512908,-46.40334859622497,-36.678486947041925,-4.9473346106993965
0.47868122941705804,-22.299200411299474,-18.88701106655885,-2.6934837095707347
0.0678880503910295,6.120997133818288,9.37696518654676,-1.2310062494169627
1.6058070249257257,24.34496107802938,33.424948739735804,-1.2645331117212322
3.9717489320388704,26.15842124528345,43.40505193115683,-2.6240262407891435
5.850553139715755,16.529762753487795,40.10073169567191,-4.347292022518056
6.601239699379014,6.1322046585770345,31.750784473814782,-5.214450799725052
6.207500726081511,3.9182568291084094,26.62354536538424,-4.2955013921587355
4.9524374309971915,12.490713299510247,27.80985083950088,-1.3385004615925542
3.3925015023776504,27.840639031670875,33.068491664109445,3.1255135961093443
2.263416033167215,42.96092328305886,37.98194069851463,8.149209539868561
2.051839919883254,52.319354739912065,38.80917399713436,13.005700239422527
2.7745248538565233,53.54892963062997,33.40009923179676,17.444966924452526
4.260956910181404,46.636590044368276,21.6660992995868,21.30254742224383
6.276389689039002,34.157427821046156,6.943918144674017,24.066750977526063
8.090242729748754,22.633481993993172,-3.8246929848562012,25.074251123496285
8.376815067572585,20.20321505086145,-4.068724867586673,24.104762417217007
6.2658348294426185,29.299361530817432,6.101196861590224,21.619755540145903
2.589048086214,41.756770264484935,17.840668210789534,18.431794828383268
-0.4177879390542365,44.0307118220366,19.65231893623248,15.238211799959666
-1.0183054734148311,29.16134106660142,7.092349655157477,12.327129505515243
0.39633048832127354,3.7008578007235147,-12.836209735464697,9.425687977472169
1.5151922753377967,-17.092269368893515,-26.838299554010288,5.815449881561623
-0.13859613666854378,-20.915321661016087,-25.651811193523404,0.9528388193134799
-5.28710451229744,-7.30439897026328,-11.165905364048779,-4.753675895521021
-12.04230631433957,11.930956348052764,4.941313532389985,-9.898329922225084
-16.830434910527366,20.709679844847905,9.967112538851092,-13.05562678390823
-16.869693549872636,10.640368528134072,0.1349710057708826,-13.889983286946256
-12.458213275678295,-11.538215169096716,-15.879767501959396,-13.333490910411896
-6.858988358161974,-28.74700894933922,-23.537592527022785,-12.81701911742119
-3.6226021379521827,-28.258816232378088,-14.607355875233859,-13.370459179313686
-3.885129734728663,-12.806812581166371,5.5992239025790544,-15.170820375024007
-6.109172086255856,2.917373098110875,22.801579028621095,-17.567506882832248
-7.960625011340706,5.932478383784534,25.674017179429573,-19.50245593586502
-8.139068460085774,-5.534124320006009,13.672039123227202,-20.18792082095795
-6.890456866365752,-23.902293297663046,-5.338879936244883,-19.56874293439123
-5.552623452305887,-39.663249443077355,-22.809150728125523,-18.109851958154927
-5.6867809233706605,-46.11904507244078,-34.04300353883407,-16.178305262119796
-7.990876581271638,-40.212015333059654,-37.13451561674496,-13.79885912024659
-11.6142742531645,-22.416593341603143,-30.64565158243382,-10.99527437205607
-14.711032836941495,3.3619176754437237,-14.22775429353876,-8.063004882100259
-15.871898171050526,30.537466294199934,8.408607681340305,-5.268826461020853
-14.902188996767771,50.971078163735,28.15633359255798,-2.4062343868547544
-12.260278803699823,56.85646542053933,34.15619098933645,1.0721627253839925
-8.244572856020419,44.87389540104201,21.595710564349584,5.378118261399182
-3.0419752303727567,20.686133600507763,-2.3971339450864932,9.889663042035481
2.801293880486118,-2.3488626011728444,-21.643600373869607,13.34868177250768
8.403701192396975,-12.097093317181074,-22.36860483234549,14.637838424161679
12.853025384212359,-6.368403473509295,-3.9398806969738915,13.633594159878328
15.148196367518818,7.391544038941524,20.792683144377097,11.49804092277671
14.215267175470053,19.893500696692932,35.72844027601271,9.92612026966592
9.802638308119256,26.263133761329378,33.382073980411064,9.672050446510596
3.572100338036877,26.26103977447338,19.236361358099074,9.688701268825723
-1.330095657637218,21.561043523245175,6.066946251898772,7.992343440193977
-2.461969226824639,13.504959468967122,2.760582384485715,3.6105746659695543
-0.03340999488037523,1.4690462712472434,6.01186121214821,-2.3356936971234132
3.3903941737493315,-17.512934198865995,2.073488481636634,-7.423594562522444
5.2353683286987565,-45.820665758027964,-21.548439927427406,-9.553457884814755
5.282024781731449,-80.39381715728332,-63.60405818440848,-7.832213730970418
6.042132384004607,-111.41197463569591,-106.93424241728255,-2.4824638962719647
10.590126257793695,-127.12418477235154,-129.24754359106612,5.385156722353422
19.28873899741272,-120.61831880566982,-118.19297928961115,13.79377149786015
28.283090204111474,-92.91997065982028,-78.89947397108057,20.238667570941622
31.746956356720624,-51.7543133245573,-29.32261586884066,22.649634542192995
26.421063418353043,-8.624507551832066,11.37574875928419,20.4153991509485
14.289131102398658,24.745079104495105,32.341136908924376,14.672568670425541
0.8549092624726365,40.79187989426865,33.291857133964584,7.654070207796144
-9.037013430026962,39.31790749314719,20.86618359052562,1.525345395881426
-13.814301863590753,26.550708295954724,3.555031619279326,-2.6202665448645255
-14.624201050231195,10.78519878961332,-11.522379958291614,-4.986206529531289
-13.3492333612093,-1.1912233335045046,-19.5384605575318,-6.339233393584605
-11.350430656653757,-4.730524720689449,-17.764144220293314,-6.986339569607253
-9.343980769499789,2.8610860139255982,-5.522572157811395,-6.542324452951357
-7.736221211060604,21.1899951059291,15.297555256877072,-4.730387818587385
-6.914928342274022,45.675347514894604,39.88832659358183,-2.1949528096401796
-7.215694890954037,68.69919524020419,61.51468782235934,-0.30261891253494555
-8.435163393941389,82.4432040099152,73.9873109649618,-0.1832343111604792
-9.439879019463065,81.39855054444114,74.08934419689905,-2.054361630396162
-8.780632339170117,64.0096557210566,62.189333699827465,-5.303041119323352
-6.086690308511067,33.4078202138646,40.815461037298526,-8.963349757289201
-2.6156663167292633,-3.9141501004979564,12.76360745992014,-12.16114443494
-0.04677823004642886,-41.134803110908656,-19.091037841035266,-14.372248087456317
1.1424515172881984,-72.43086171527519,-49.697995285354665,-15.376065137624249
1.8120190353366619,-91.34987999126876,-70.289935859025,-14.941297470442942
2.9151742373434306,-90.99355701985833,-71.60813807029182,-12.720052425451744
4.581675106829086,-69.70729461831428,-51.446173703406934,-8.739292570985358
6.296090249917237,-36.46945977962244,-19.22991798713943,-3.9689929066223684
7.359464462800756,-6.7994748645480545,8.991528042755828,0.014792117277934879
7.037011943030023,9.289184357986503,22.10229309549587,2.2572173786859
4.85098081308582,14.806934662856643,21.479360056655324,3.2467636688507695
1.2144198139340685,20.73218898980468,17.84753265293843,4.332143530974843
-2.4052442317103533,34.086922225286195,20.879428735377946,6.329873637933699
-4.300324714453363,50.55947376493775,30.502885457993855,8.760460031625806
-3.5266547577078926,57.02853741357215,36.50484690787644,10.355034397094395
-0.14634751057232157,41.44628398476823,26.83181487528489,10.249673443349884
5.102006988995967,3.607983911710301,-1.2308535097595925,8.871748322414115
11.01629401416845,-41.0640336156337,-36.11062205291548,7.829727713570844
16.04373970086072,-69.85727307147228,-58.78128063966689,8.707420941759613
18.681027661784714,-68.7598188083224,-56.89651427168466,11.510872479015418
17.96296677581188,-42.65284233606468,-34.183298304748284,14.159681419824055
13.61734689544087,-10.275971127083661,-6.945529433456655,13.813167576880009
6.128989430408705,10.460606123258726,8.423542960380505,9.07214386416968
-2.902814736734238,12.785897430054526,5.7265474953616415,1.096644318701686
-10.704651610308234,0.6245229094430435,-9.816776475582076,-7.228899147353278
-14.50665489247531,-16.927394637213325,-27.073411623266136,-13.074633729368385
-13.46475172378759,-29.450159136630916,-35.27541529121715,-14.9314410275612
-9.461292598093952,-27.96997832185698,-28.33356915760283,-12.934960911884001
-5.790964355164818,-9.444223855741932,-7.466177285807744,-8.570966655772061
-4.873292810814424,19.732584237921166,18.612053933953785,-3.9244296364796294
-6.847610480282465,46.36034786285311,37.782355549595465,-0.599686883972676
-9.77636432406102,58.58211450860879,41.767334671184045,1.0490006169793102
-11.047678278915798,53.04155363835106,31.403111226339426,1.7083414761572067
-9.248741833392277,36.04172279957274,15.474254434522711,2.171469029673325
-5.470087199767584,18.869184383976467,3.841777549814894,2.6310461777962253
-2.7970796845318473,10.2282308970167,0.0684661760383826,2.6873206234594735
-3.909268662168457,10.042039913942196,-0.8506556516218602,1.7344027788870888
-8.742444645426113,9.90098429264934,-7.400239671131079,-0.6650055917460197
-14.449104383602739,1.5919007496695665,-22.54640128189319,-4.418149791333194
-17.594223337316926,-13.687986655560726,-38.855289911741366,-8.633364581471941
-16.432198639147728,-25.575162253817005,-43.53022292899623,-11.82788371063578
-11.677855821000659,-24.323176887316126,-29.70401750754536,-12.696620004304323
-5.972304784605114,-9.123292223897835,-3.152243357751844,-10.869107612013096
-2.640639917497771,13.077704092322632,22.145637071063458,-7.064991263765457
-3.812709241486778,34.09918417478217,34.84356238202168,-2.6960811090639103
-8.60491661241448,48.068005385341905,33.23741028554634,0.7094791077479788
-13.171663384183107,50.935212947350145,23.453890715585345,2.113348584926371
-13.410246375916453,40.52128974774108,12.384957513754063,1.4884255884020763
-8.261648567965253,18.450632126890195,2.390469343927522,-0.1824888848688107
-0.5349338621397604,-9.012876969702274,-8.117914364717777,-1.7025332047487793
5.401442988992344,-32.99079736607997,-19.8289815084725,-2.6596832118323346
6.813886722922493,-45.71393919543173,-29.121876459472432,-3.6186819957432954
4.195880982783361,-44.455796486872906,-30.44773330556377,-5.297879883303171
0.5515784723453334,-33.87469312999776,-22.407774477202253,-7.610356052497575
-0.8497550691317377,-23.689671202857355,-10.533908261990154,-9.501141027577686
1.1995853961486098,-21.34854841982793,-2.956232918794799,-9.660410167509179
5.129260283898543,-26.01139121077858,-3.3961876910784805,-7.503777372282324
8.310026655034028,-31.01090651675759,-9.078107214621689,-3.6792174777979043
9.850889875693097,-32.59562242392909,-15.170047419879957,0.42827930374385176
11.74635518419407,-34.56637153664415,-19.957233874950877,4.042890892679755
17.11171893763193,-43.24141369289666,-25.07152384383196,7.996772202946703
27.13653447050553,-59.02139205470602,-31.544203144930506,14.014645408084945
39.47417081266476,-74.16514325498852,-36.864374593183285,22.561320525304318
49.29378085227746,-78.40615387048398,-36.29628690947892,31.462762857461584
52.176245484822964,-66.42519574562614,-26.96127304140914,37.083024424023414
46.9827023571691,-41.622852548506756,-10.868280319748315,37.10692276930328
36.73486984500689,-14.54159759702108,5.702872452078491,32.20018136260315
26.54339004961106,3.552353023762813,16.3465334049398,25.157766349830563
19.890029181605414,8.907341574981864,19.485170191964407,18.740984389579722
16.410677218744876,8.60300537535617,19.94586330500906,14.16771836023882
13.210598603502882,13.770144958392518,24.572737630858292,10.975081991037182
8.206995573866504,27.335016829430472,34.524880125774885,7.801878957955235
1.975583048057134,38.74843634118899,41.47873163802334,3.4685054872975862
-3.5092138652998193,32.6194212271812,32.91056623967525,-2.192735872127508
-7.427320858452825,3.977209342939873,3.4013941576276276,-8.294665343642139
-11.173797432365989,-34.062686181969035,-37.632313820021736,-13.690163671797832
-17.089851632419442,-57.46227611097809,-69.42759852361304,-17.865267707161244
-26.167320451021574,-48.00280714947995,-73.20113954617821,-21.10151957564876
-36.57571801900033,-7.0603912068392765,-45.44092554955349,-23.88036062005625
-44.26335105635049,44.447493672773724,-0.48487249055136394,-26.210421556167642
-45.636969932603165,80.97704150253674,39.92608837942693,-27.489258715928305
-40.50188899400172,90.34796536985053,61.17081349362067,-27.000678052809743
-32.52589144234397,78.83560175470456,61.889345664051945,-24.68563173191684
-26.380518588027044,59.65443456015071,48.22091814795798,-21.520715397280078
-24.105107556369873,38.83630566700851,25.047328189920215,-18.935932028462638
-24.114820932846875,14.316452248466318,-5.23213839080129,-17.527718362302636
-23.3845818530699,-13.206236341529664,-36.85515361207188,-16.30833728425359
-20.268361770178267,-33.42563308488253,-57.81043493938389,-13.534162351845175
-15.54030084852862,-33.125378732514385,-56.27214934610981,-8.526577017992635
-11.440488896897586,-8.994010235454198,-31.05990117473532,-2.6174039629266654
-9.83160680969838,27.107135892915423,4.700685712637777,1.8567686912543289
-10.616567612965417,55.41251800543486,31.601085780675135,3.5230370126983455
-11.498398198854542,62.008542599576636,38.00634610621279,3.005673872504326
-9.646025472942435,48.65963277686174,28.634456301520522,2.2423004832876052
-4.142173587386416,30.569887779436325,19.508007638822512,2.8965379735931895
3.1283967813719076,22.26703817041464,22.310826640878403,5.1739339243694635
9.10155875162979,23.307458877468203,31.979221189749587,7.823463003680352
11.937129965721496,18.767020932273777,30.4841615125185,9.303199641995864
11.947528552909827,-4.024847528306054,4.949218731312556,9.260429155578022
10.837564670683628,-39.52053326279808,-37.01433557080069,9.006948774082044
10.538837128739102,-66.59813429005523,-70.68995828070152,10.343653490748157
12.277944032226072,-67.58773917344533,-74.21671282130956,13.689229405079354
15.732971706733789,-43.78020817198635,-46.46436728301089,17.29964805089133
18.78930096176806,-12.682679348136684,-6.551709324275414,18.349212413930573
18.836551081233246,7.736748258174068,22.979677691453073,14.950400334501314
15.065610920331723,11.494699108008287,32.596143951464136,7.6141085660640915
9.568665260556187,4.3563357936240195,27.935259407633286,-0.7174303550045792
5.878745588522892,-5.248266436696758,19.08358664007084,-6.147510488478733
6.167477785205568,-14.28271031921867,9.688673048370045,-6.207772266764235
9.536680343702105,-25.311642999323276,-3.6470109496638643,-1.6997316085782206
12.66966114611496,-39.64084356791237,-22.872087205678476,3.672940679801026
12.316872691697602,-51.3864014002473,-41.43753429942266,6.070945543782461
8.023501110223863,-50.792747351484046,-47.662642621146865,4.579841913522073
3.0741419237611556,-35.1565968649615,-36.09533943026056,1.8478640665419972
2.2920387071574417,-14.80879543864247,-14.583606134169369,1.6409451504392665
7.827699192391172,-4.989574162068967,1.8381812871247885,5.412997249431961
16.62465881318597,-10.938118642015368,4.797353873021229,10.82363700952273
22.403510435752732,-22.566006472258128,-0.26084750936302414,13.491749903916896
20.709652626012957,-24.41589075070513,-0.8046349922298814,10.661638775633469
12.450483288724655,-10.110054955185381,9.608636482624835,3.801185047347275
2.9507386040277304,12.140229733705793,24.66259472439317,-2.276337640216268
-2.2271353309262,25.920030818227428,30.55460320383175,-3.3917765415917924
-1.1494050458473748,18.67602840224426,17.87188163919317,0.28143982238472154
3.521833359014832,-8.745549846797713,-10.00495387069135,4.288771104693046
6.750586512996935,-41.628871182412034,-38.84317137029147,3.8458717355649807
4.867176609823096,-61.48046985856461,-54.27651992641088,-2.034006045242955
-1.8714083312978556,-59.279022625060854,-51.95431647667782,-9.990826622367045
-9.84524704510437,-40.119092240742596,-38.17736708759378,-15.406556435975164
-15.077345837460674,-15.841473849520147,-21.752680290957226,-15.914219371722053
-15.876434952323955,4.979062610330104,-6.697194077932489,-12.4610830930968
-13.187176600392164,19.48406465699315,6.947543797942588,-7.8456337281814035
-9.352793595677364,26.5330843231793,17.34732402874569,-4.572647050441832
-6.884356782655965,24.406143176986454,18.74801278430647,-3.6260048484859504
-7.486283911584419,13.076129496462295,6.3676232572633555,-4.53640258120753
-10.971733478473164,-3.2921877798183155,-16.724374049388203,-6.23005271922124
-14.917593969078288,-17.09380788471175,-38.14118820205015,-7.834474808573373
-16.252804123550987,-20.27211599077738,-42.80120688715311,-8.855969979107263
-13.858572587812445,-7.98377007719633,-23.50941231364462,-8.879802965397243
-9.517094372435274,17.55635473817667,12.413053582475445,-7.488349621308235
-6.1353667060587105,45.658480138121014,46.33571987825283,-4.670624588714626
-5.233996452571956,62.00900572338057,60.066207805304714,-1.139603596167359
-6.181699268424947,58.189306323656005,47.64323099755645,2.0095647787445206
-7.315628700493116,37.59330692601199,18.17780236821268,3.972786167653718
-7.327286758968604,12.02313595543673,-11.665741131348044,4.526821687006297
-5.842188274762876,-6.923719086371237,-28.3560210746957,3.863056455074137
-3.275964459057997,-13.497181902276736,-27.23825712485457,2.4409422573951245
-0.3036119598235405,-8.296566557889518,-11.886422933788278,0.9825040031758039
2.6959161986390088,2.9866929746749857,9.005764762109926,0.24235768422255835
5.601319905236538,11.549582437586125,24.789322637214,0.4687167239484362
7.811358853577575,10.242603549476003,27.185819660575216,1.068477664074075
7.939235993391829,-0.6221082281023571,15.44935753259489,0.9651686680404638
4.9786681184888195,-12.62803574095091,-1.9988657205814018,-0.49015998404504413
-0.059343383270069,-15.834816655515102,-12.770158399503682,-2.7268395511192938
-4.270904799622574,-6.475805080940569,-9.335271071032595,-4.0147134228761905
-5.160266885523633,10.998716285901073,5.735374412653015,-2.6596375833436303
-2.8163189935855373,27.608558463723185,22.13578839348864,1.339652132996239
0.30551028912781836,35.22721082010317,29.463951614816327,5.717852870194472
1.6547032107620492,30.94636646562266,24.27608031250435,7.5232206824962935
0.7369935349846028,18.719044376118326,11.634521676186113,5.842066761961233
-0.5087123143140138,6.368257582724749,0.3383240627240835,2.9879696507875555
0.709796899052801,-0.6830967338428644,-4.058725090786479,2.5795300544047928
5.527771892086368,-3.0145764446499186,-2.5158996929278357,6.132769213491944
11.904431867886725,-4.451630993520931,0.08011455486620185,11.520523026988833
15.801675247315773,-7.136794835228265,-0.2890811928692287,14.772908645468137
14.515385303213765,-10.712467789863542,-4.546323354370581,13.362217469252817
9.110031628276483,-15.093903827000585,-11.539081884664958,8.001416512586827
3.4667605775778716,-21.54469251277234,-19.798305069645846,1.797793503418348
0.9850737887723844,-30.822839276702226,-28.507909417026518,-2.07245965716952
2.268661994858344,-41.93317106969947,-37.73826755167343,-2.2625661447785834
5.508139428877386,-52.70268765300871,-47.547823618164564,0.38736168254740555
8.281994966184973,-59.847475065498415,-55.920710968007654,3.8727636895580138
8.90177960688889,-58.77050501965247,-58.039317220091526,6.365919727780019
6.957046474330339,-46.41122227222612,-49.50034775536266,6.871467220710769
3.457924921698724,-26.08222071914011,-31.28090492825718,5.146339783918549
0.35714737855607714,-7.479993763831324,-10.62329909136633,1.589243179007812
-0.7438329127862445,0.8372508566399554,4.227356628076762,-2.6176101765842756
0.21469835176895938,-0.8738289217112897,10.376494347033864,-5.7264805681993645
1.835071153675743,-4.4589819726833255,11.372434396407355,-6.442222100867777
2.4529520681869723,-2.152235721677473,12.622694521530219,-4.996980691981656
1.2152107667597767,6.84151364019237,16.32994588495364,-3.0973940731280427
-1.646451344069747,17.034384168572263,20.49574446511533,-2.6659554218137758
-5.123180682209152,22.005049384139117,21.747585566857737,-4.527507190269881
-8.007885481327246,19.04395479993522,18.543386100476067,-8.035338646281176
-9.551430775351786,10.377407591332894,12.069283379563583,-11.601529025566172
-9.739334197973545,0.9256961706910404,4.8052914718252,-13.599827912839245
-8.911834062933,-5.729631489217506,-1.4524700448501828,-13.26008908555502
-7.325048157947357,-9.606587147758079,-6.223857905158658,-11.151364425560889
-5.382169932294023,-12.011622614764972,-9.100457822440312,-8.743722601030498
-4.050137964442813,-11.230096215495728,-8.2521868586392,-7.1385367323833995
-4.317523010825469,-2.649851010164809,-1.2859938367988435,-6.042801089944697
-5.923583293695307,15.07867281445075,11.283154004383578,-4.074712866734994
-7.1193389177251305,34.904049070300545,23.57378055845465,-0.22819840302940195
-6.248205427483625,44.49072702425662,26.737836303794285,4.824317972682168
-3.488886427300971,35.42210664264339,15.307460077814916,8.762830321555851
-0.7291248873083964,9.93347274922624,-7.691122082409669,9.066091562925815
0.15375408199304666,-19.693309304976783,-31.15202913153127,4.922303437600532
-1.3765751370317503,-37.6200134038779,-42.0254295841429,-1.7975078989590294
-4.56979082433464,-33.52413630865781,-33.83897811713402,-7.491324700564052
-8.090894442119453,-10.192779059603327,-12.185974645801132,-9.272198599143564
-10.549390332285515,16.467710176913886,7.854782123031008,-6.96404963575288
-10.905937858072855,27.986100426250598,12.197575109318578,-2.8522884115068536
-8.852182736759898,17.212133257808876,-1.5904898809808325,0.47593490517507786
-4.821585529665028,-7.145499289476548,-22.762039827664196,2.0029627268957384
0.3870372222903232,-29.28881572322698,-36.40673541165435,2.283014107732479
5.8418993863308675,-38.982645934608506,-34.85054330871303,2.2269907565168334
10.462055422367326,-36.67855212108365,-22.003224130851837,2.3370660529999356
13.333919498885933,-29.349260630471175,-8.362580087407585,2.9211385580184492
14.415960090412993,-23.260358877095907,-1.938273844202138,4.435887554303723
14.671096001166198,-19.529263239303532,-2.452810111054489,7.221751744460559
15.104783790866023,-14.622465841880336,-2.9229960741733096,10.893804774302351
15.706038197955936,-5.12088926242428,3.0814605155158756,14.078056003564258
15.5063911928685,7.105675226233759,14.925523915609695,14.845934802322938
13.49505336534646,14.994543359615408,25.102885193807154,11.760598342154315
9.28210315091961,12.817056056739402,25.844754294857673,5.054403695564856
3.2600079454019766,2.400746158275009,15.673831626993628,-2.943715374522046
-3.2934117354769348,-8.252468577151733,0.039949138909256866,-8.838865424855173
-8.423767690206079,-12.209327954921754,-13.390622949530316,-10.229560112331773
-10.620298258548138,-8.237329199335344,-19.57507314774619,-7.239320017243262
-10.102904324355894,0.9465637617784991,-17.555642726121636,-2.2445693278742844
-8.554727921221213,12.083498246265325,-9.44830538464481,1.930604807934074
-7.197608654556193,21.840074748632542,0.9158497404147039,3.871491764563596
-5.459671652365873,26.49945064421013,9.536520656888127,4.164946322105187
-1.994348132170876,24.339626972980312,14.34597192265495,4.485984622815694
3.1576441006308036,18.193010394072143,16.250377794641516,5.9868923753182575
7.890948306704096,13.420123437759257,17.262699766311776,8.272079571045513
9.585989501873772,12.652719665888906,17.31604132440989,9.81124975693064
7.211901243819745,13.56557757371948,13.77259027830261,9.386353853979232
2.166550043146872,12.016607768302103,4.839393140521813,7.1550644674333395
-2.544653550642087,6.5611613959360495,-6.67747247855701,4.368624350486614
-4.165934220784708,0.16995134461623843,-13.571643366547734,2.2789965409254282
-2.0209143303470154,-1.456364121439912,-8.952640692795981,1.4415025022721477
1.9807743217378186,5.8750510020783056,7.813386479593339,1.728529548844676
4.767070860614973,19.885687398487978,28.52976325134462,2.44249697703136
4.355659754624935,30.795611218558367,40.06281812627872,2.341506437093442
0.9902001162439916,27.985426759004042,33.39744745519582,0.17247315302475832
-3.4897770745436514,9.890321443999241,11.228889219257164,-4.216892519475717
-6.964732800982164,-13.320459219120824,-13.085852884291189,-9.307972311262915
-7.981198684243932,-28.097685936536397,-25.346371486747877,-12.818332970703121
-6.34496956734783,-28.49656160426792,-20.96059211869033,-13.412692348261608
-3.4338208060333972,-19.462538202120466,-7.51153738898127,-11.670864080561236
-1.6239482325868144,-11.568732200479808,1.625528073926076,-9.647280296663675
-2.6976307197110834,-13.516532025120311,-3.1547141568615418,-9.564464175337271
-6.467302188894124,-27.118329204326162,-21.586045396653926,-12.412662240235557
-10.892413018651396,-46.246022702268924,-44.32696824281548,-17.046911852247955
-13.40093582590846,-60.6860742785633,-59.772321298397166,-20.45998130469126
-12.214421491735024,-63.389145677698885,-61.86402036365076,-19.544515292469377
-7.173701179462576,-55.03519955015773,-52.77970226886177,-13.3666324970612
-0.13109551414853912,-41.22833845648279,-38.90057075247724,-4.095381081618581
5.571081874809378,-26.098125028916446,-24.94749757662407,4.32204355917456
7.011561659865117,-10.253392289555466,-12.172024667705362,8.699441578428347
3.883363391515254,5.611826243504481,-0.9140766678573792,8.438466754744395
-1.1636303943970516,17.94210408627895,7.02995926407028,5.5396387793129795
-4.557905743317839,22.683850706493725,9.361494468383762,3.0721855763129535
-4.263648787452282,19.30507430341128,5.987351708020418,3.1984051186428406
-0.5789806377009749,11.278536406933085,0.05877502597955155,5.960542895785433
4.7083032575588755,3.1524944386191063,-3.899358775051774,9.537650491896231
9.47151531228018,-2.2097918035188977,-3.179274919945802,11.663224731894804
12.016168810129814,-4.492836554494143,1.140038673350446,11.071176964172134
11.640330360279393,-5.230730096218751,5.142505767849857,8.077750322592166
8.954037085848949,-5.723310403521541,5.604851869331383,4.338082355750276
5.6056640741190655,-4.792158138906318,3.2346173432098797,2.143969361740268
3.449796528047325,0.3341089888840275,2.052878192857127,3.2318563326902576
3.5813948859146985,9.294828284133432,4.777722182332498,7.262677884758166
5.555917720413892,15.765912906477194,9.07605848920034,11.188110503941076
7.201818447036013,12.319235305247666,9.599565290145224,10.833672657088526
5.736146154150091,-0.9905286692512391,4.096010858117619,4.098284313512045
0.10906315660378384,-15.042548828455336,-3.5947903039654765,-6.888852553431858
-7.329068406745891,-20.149207879428708,-7.409366956787784,-16.777929326604834
-12.039450506356102,-14.896337241034248,-5.152293388593995,-20.47325600293172
-10.914085301331319,-5.452836691869104,0.143564004120804,-16.32503963868069
-5.002552821964235,2.1568770982824423,4.203758323761864,-6.903345587133615
1.263479752300225,6.980988300188894,5.487719646204274,2.7529688437371633
3.5003009323683356,11.416415434211457,5.321382894599433,8.136586675525136
0.48417974810383574,17.287366758409892,5.549953594783,7.8967709782172095
-5.081690008836984,24.04053031669306,6.803260340512989,4.598492254467642
-8.2630732013187,29.009954381494456,8.40947492077435,2.9018736570717345
-5.1288482178080725,28.85254192101934,9.231711521951764,6.1142208599634085
4.159787058525952,22.00202759328472,8.484201518210648,13.529124961886621
14.737550893205448,10.33552180711531,5.832592888642347,20.63126661387843
20.065225641392647,-2.1935523050757784,0.9548359317027352,22.13224172540762
16.583934078223727,-12.366700797773932,-6.141930562010753,15.68994278726489
6.106954244082488,-18.23863706868893,-13.678274045642993,3.682690208630923
-5.846786714778202,-17.898532151685156,-17.752191887958343,-8.229213101816729
-13.822977348021057,-10.494616868199222,-15.080019036730132,-14.76434324530391
-15.219045432838682,0.6597206870728815,-6.640260346365469,-14.265960039600836
-10.893360727548412,8.40501711039784,2.276948699270384,-9.213598207453686
-4.16821466955597,7.430698402770246,6.346519808113146,-3.9120611678568245
1.0598039618245532,-0.6763650824646392,4.430896604759995,-1.470109576525811
2.4075101331470856,-8.991993942859324,-0.26273367017089505,-2.3172778638376488
0.08584172265543426,-11.156354058443656,-3.2895022813120365,-4.774902487735878
-3.8357907522957855,-5.128965327604631,-1.8422801049679012,-6.643983019266393
-7.149868205187666,6.984676842406638,4.26390546386233,-6.636138613431025
-8.583173257593918,20.027025191825004,12.682281976675764,-5.05233299230061
-7.765146831168932,26.79705676451824,19.139850717315976,-3.466484912329915
-4.948296394358609,21.16697347097312,19.290133012019417,-3.521188893086538
-1.0029825941043902,2.9977069412450486,11.765698874317767,-5.616875100070154
2.7322577760670965,-19.758143185269734,0.18216127751856495,-8.54277241565711
5.009053719703021,-35.00098838548509,-8.44911767872858,-10.312012877309613
5.185597324871711,-34.1309834000474,-8.731903355729365,-9.437045089035076
3.3799623170482187,-18.22720762940423,-1.8856719062639842,-5.77409389814602
0.49721878752535903,1.1629953755628977,3.627474534202036,-0.6283020142727844
-1.873681299299072,8.36483883343719,-2.232730443978494,3.896743772395514
-2.1805705516240645,-4.906821938707762,-22.214469273356976,6.191239794586001
-0.07526832117369212,-30.970372566071397,-47.09085343026933,6.362174980711584
3.2050637003350757,-50.20511839798447,-60.98583909611279,6.197115338607911
5.899046172540691,-46.980488166451615,-53.77118587223193,7.521440045203504
7.0703953632978145,-23.039990916864163,-29.465410672752885,10.301726554905013
6.763112086377664,5.198844934937051,-2.28056462789931,12.34855819639032
5.219585111216097,21.99533912730107,15.743211288914253,10.966317798091232
2.5246821112805664,24.18857571750486,23.241997116322523,5.101829269771474
-1.0245869534010297,19.706176278997923,26.784610987977803,-3.6533110419664605
-4.711448804801025,17.42646213209171,31.2096532629259,-11.732304100038125
-7.666760266580907,18.86741156076221,33.20129060137349,-15.452735993837404
-8.995684095922554,17.412309186535946,24.08001192894853,-13.096233487923586
-7.685013082102277,4.675248963957652,-0.8574513726036108,-5.945531098121866
-3.057125613342872,-20.558391390144198,-35.06869010601887,2.6424325483127613
4.197390682735086,-48.355821084640446,-63.04725535921356,9.56211371169041
11.657041869156402,-63.815673525776376,-71.34888077575546,13.673035351073295
16.27448254201766,-58.9758471745523,-58.7707450842617,15.423970798135942
16.072386293076505,-38.99121528120217,-36.27694537641617,15.176531882392567
11.120927133428387,-16.91418244067856,-17.3460489710863,12.379943163082018
3.5472705254287993,-3.5592755162149774,-8.410703197036314,6.552171012674139
-3.1627170360595542,-2.0456852916258965,-7.1707120451311335,-1.2081117108123023
-5.746146780438196,-8.823356437509593,-7.584254398045613,-8.08747801441146
-3.3691509942761066,-16.898400357578367,-5.278202337497863,-11.250767596663458
1.2533699600598838,-18.955817536182515,0.5158596934409033,-10.007252955782727
3.479110972417018,-10.92446316779628,8.10058446309355,-6.588556243621195
0.23696317477410037,5.310424650755813,15.412469917210574,-4.6882115781679055
-7.568058015312739,22.840974686909775,21.236322865381215,-6.679351431475394
-15.683383722421148,33.89397999726724,24.78945268014446,-11.682455711815734
-19.329072523883617,33.754573367230506,24.86516468898328,-16.15366739164529
-16.04978117311548,22.839846793826016,20.71845003187259,-16.524663594380126
-7.127968464423986,7.610349961948664,14.550679533278258,-11.656944560463389
2.985895835973591,-1.0200223294907138,11.900615051883422,-3.3101755284956704
9.15239593521497,5.599326049011168,17.101756805968414,5.2280094562492305
8.724642930333674,25.17358052770564,27.196338852559112,10.99841746403983
3.1971343136816066,43.362769764254985,31.930854980095333,12.687927362815262
-3.0437209130744125,44.72205696465838,22.448478583263526,11.042855106978719
-5.820880396401606,26.491654822561244,1.0273369606975218,8.210896089712666
-3.747903892581193,1.348296615218898,-18.812444291342484,6.235882727857447
1.1913793073108598,-13.277534271235337,-23.17892088122067,5.762042658411842
5.078059609533324,-8.386611782300815,-9.484608484428193,6.0837223997985035
4.754680657209171,11.676760143859314,11.855156449035652,6.346044953929015
0.32089993742491424,33.610042888488245,26.318420836016873,6.434716685871332
-4.657778936045794,43.695747956007764,26.07489343541222,6.599598940838764
-6.062757585682456,35.52956195493207,13.884040301899928,6.505919166040611
-2.936646406721638,12.966783484491597,-1.7046189635626934,5.07714464021983
1.7556461411878619,-13.845001116969843,-14.422266517391947,1.4871546085432663
4.17690542563226,-35.95603243143128,-24.031039726289336,-3.66411368814463
3.166807406938424,-49.38777226264828,-32.78670744639234,-8.215585191437286
0.7128058311696392,-52.94399789427721,-39.46992070568092,-9.729995654111269
-0.5031244039660187,-45.81426263715132,-38.67737319155086,-7.373700027057791
0.5027044106031328,-29.540920768326522,-26.72760667878049,-2.825972460164347
2.7208050558921753,-10.41678447131491,-7.160869378399314,0.8452593760309949
4.504087017337472,3.4341363379222773,10.958360559084309,1.6359691936941356
5.0749505484625805,8.122136108612896,20.299264425838576,0.17492705287227195
5.0547444287438,6.172239941867475,20.624558176236093,-1.1757386224565332
5.58970559735766,3.0651881111984474,17.662856764443458,-0.8186247565008319
6.725261318647892,2.7003336304071563,17.341601535416252,0.48894640673138384
6.757288180655226,5.1710844598827,20.30497084257994,0.4302975869250226
3.7001191991225797,6.469657765442226,20.65305981727677,-2.630398510334334
-2.3629531830438,0.15028574284132776,10.101571034352743,-8.049678597623553
-8.627854467971778,-17.955990536103563,-14.808218109890115,-13.131108679482395
-11.494136759148557,-44.406293651126745,-47.83177482163278,-14.828864794346233
-9.219703961630747,-67.94590628053567,-75.05131429178348,-11.726796542991975
-3.021846570798261,-76.13131866226186,-82.9819080594878,-5.00656001720582
3.813314537634771,-63.08213386424654,-66.71863550690527,2.312717428346929
7.773264917322417,-32.100176807036874,-32.458180998679985,7.348471664521158
6.897696819830783,6.77995753860955,6.247766518054696,8.954331055311638
1.8124132871728935,40.62654645767971,35.10464193831257,7.743551776373401
-4.6095372143130104,57.649784498941145,44.95787481394847,4.979529791928457
-8.947578834838195,52.01857281552577,34.932317862321156,1.7486690590214764
-9.114912686220926,27.329018015823596,11.945879164148872,-0.9726120535835081
-5.113275249354707,-4.832462855793737,-13.119053151878672,-2.0531480958499126
1.390279065163771,-30.92228889068044,-30.60769703041774,-0.5421614829839358
7.874153338403505,-41.78501297287463,-35.893953918308505,3.540374280583951
11.900484875213277,-36.07342387352324,-30.227171776673135,8.742620013865139
12.304675448038697,-20.25676675336417,-18.918841637170893,12.639934562160901
9.926461920405785,-4.885010818900767,-8.035304519009472,13.178403400867978
6.776048979515385,2.60596506649708,-0.9587215183391884,10.131640747818178
4.075780575240103,3.9812124473651553,3.3738670303812115,5.44362762722888
1.2686895964882796,8.522027140947413,8.960346365745144,1.8433053723752126
-2.8370495894909227,23.57768133793377,18.663650419474408,0.7554036933095338
-8.179283941747071,46.47666537880798,31.005868532309986,1.4496414520303424
-12.983330215199558,65.92012642331885,40.698876244780855,2.133809429146316
-15.068972483396609,70.50350100336462,42.125526226231614,1.6100892146032373
-13.45147211970778,55.894527102344014,32.794995549502566,-0.20177593801715
-8.954385522952384,26.519631847005098,15.022680244418417,-2.8810842082752925
-3.7014817233063755,-6.740972761727981,-4.518735886450401,-6.029251714349979
0.07216848739352143,-31.475149917296044,-17.869238934129392,-9.150832888111397
1.2758743212972965,-40.46156125302003,-20.761595387081925,-11.515842457746382
0.4422471758980696,-36.0189249341022,-15.760028297709512,-12.512245203041997
-1.0232741762487538,-27.217901922439303,-9.935817495483809,-12.113463418408104
-2.074811028834012,-22.041048606238114,-8.757777191674938,-10.92110807032834
-2.4704209086083204,-22.28237797979534,-12.083537869870915,-9.784448182045349
-2.247337079150791,-24.93178103789098,-15.578040841578366,-9.247610678218136
-1.2466484084752572,-26.20013443038333,-15.169551921739558,-9.02053209217794
0.6693820720678619,-23.845445564299737,-10.286186248737321,-7.911800679060206
3.178013071977396,-17.97074563554398,-4.025580307288219,-4.736042390676505
5.402114894512992,-11.129673481274487,-0.7336445794084184,0.23633340158106805
6.1094696259872086,-6.307386640317168,-2.420108845781507,4.825322766425089
4.1900878277016815,-3.3899719707832587,-6.53238244909336,6.430025354864719
-0.32501163065732597,1.111243501948866,-7.670916355766572,4.31063763853652
-5.259855441574271,9.080329548419245,-2.563548897693863,0.4556920529456603
-6.898473734270279,16.545892584765078,6.386124178222928,-1.7892682196884726
-2.733526973862538,16.89896091570692,12.917720425900193,-0.05187072774757585
5.815525530740593,8.782972543379628,12.505119312416467,5.554694302430955
13.695236268072106,-1.0009887019657386,6.2075208824887,12.474007786059524
15.773584450150915,-3.4859270447345843,-0.5847288207499299,17.058115373734672
10.662035350549637,4.131714298102013,-2.691589240640508,16.58360432835259
1.6888921278732165,16.107088041032547,1.1902316274087494,10.9306187312906
-5.442945624766881,22.76843800060768,7.988759135233132,2.7895474851184354
-6.401001361332899,17.375199831576822,12.463978788146383,-3.9054798370675377
-0.9100164625079857,0.6541459153863606,10.526155867430353,-6.24164144869969
7.28209889424141,-19.269211927504458,1.9348729103186446,-3.748920749801427
13.151216411546915,-31.825540439048268,-9.258181183423657,1.707770271085696
13.805236606812695,-30.841775792383523,-17.05678513924241,7.17796279458571
9.81716480623547,-17.793605465336714,-17.174562857984565,10.213414506666282
3.7303706687069,0.8026579585100546,-9.6409845941983,10.002809969975807
-2.201949383027906,17.778830006085844,0.8495709776146975,7.459305104080441
-6.723978815335068,26.8979112134216,6.859819795635578,4.302604339061692
-8.91961349936762,23.27309119639155,2.2777730046943945,1.9491485599631724
-8.093494621972951,6.6393993645648175,-12.728562218226644,0.9829253865989002
-4.776349853234332,-14.898764786173167,-29.74250194096939,1.139708197902534
-1.3179444664394468,-27.636705683841736,-36.69541275440925,1.3800850673848104
-0.7337759479498581,-21.99933084939274,-26.81518287808312,0.2133440077210199
-4.5200079125523125,-0.31305382237460655,-4.273880857351716,-3.32626867685044
-11.270268048761086,24.81216725898435,18.684101957653894,-8.583505765468677
-17.196057182724854,38.99030367338439,30.24528422074036,-13.340811627794155
-18.325178739342213,34.00502446017065,25.856079794616946,-15.329667708313911
-13.102573795125258,11.201094565044212,9.1457204352629,-13.809769523891141
-3.5544318228045704,-19.76753009529149,-11.763499725906371,-9.756098719943415
6.101065528022576,-46.02764623191458,-28.73702147918477,-4.857515067511248
12.326694660102634,-58.055382034893626,-36.17244368060476,-0.6413775058648673
14.062794243462122,-53.59281415298771,-31.676577568105397,1.7056474688465284
12.225900269200064,-37.15797832274906,-16.816593802113655,1.4254341637832106
8.304579637649832,-17.509007266155457,1.6653830086130996,-1.3444712531086143
3.8181232919826247,-4.702764122570774,13.278029669478116,-5.224777487018849
0.34858027324429286,-5.14642986576376,10.330103408660946,-8.07371205284033
-1.1279347004589244,-15.601341036111961,-4.57002260904051,-8.1818500309549
-1.2562416230374773,-23.14209034633107,-18.69862101785107,-5.361578345865413
-1.9716942468692766,-15.416298854671165,-19.603549256545666,-1.1611578768803696
-4.608743913732869,6.757863924206352,-6.736624776822541,2.0541755730513973
-8.454519730366231,28.23279315803391,7.4466319975712505,2.720156624177498
-11.352107360271553,32.56440367755463,8.541671939368536,1.2533949872353893
-11.53384634188971,16.555611375664093,-6.87068565208322,-0.330981070597222
-8.796531127794577,-7.408781674890711,-27.850461547214064,-0.2146580122653734
-4.357056547606101,-21.76951314916601,-37.45454465783443,1.6307999014388326
-0.005755585708063148,-16.633142325303883,-25.440132618910464,3.536853731659885
2.854291085439588,4.201851737289285,4.165145130855185,3.700566786737736
3.9567114618965493,26.336894536191007,35.325378815384866,1.7190047907237784
4.198968095541412,34.344216057946944,50.11986809581027,-1.0396121930834576
4.775927051434769,22.2156760095717,40.09558430574646,-2.2577426801026728
6.266786708301697,-2.632188997765077,11.42903060464978,-0.10336672303818856
8.612707288895178,-25.50799030237917,-19.558085345138373,5.461486575973048
11.614704100708611,-35.45262060407291,-36.99697970759813,12.334909106350889
14.877176980359998,-31.065376547969645,-34.20101143818446,17.353300874155124
17.26478803698558,-17.512971234837895,-15.103446617150711,18.172773694105874
17.081998354599175,-0.6442950535298423,10.311087021719944,14.564041927335996
13.33463835684732,15.338356983091659,31.69501627605077,8.301142824377877
6.81777977117331,27.16017701742115,42.07984327611907,2.0622863184201443
-0.16948529881716887,32.39028896985679,39.48781343953394,-1.8086718807099147
-5.191531159242201,30.424467593651443,26.835318081436558,-2.300330933524375
-7.052849252122809,22.856451484706984,10.348773297176965,-0.32159586056501693
-6.500939135285306,13.238944804196668,-2.8534530049873426,1.5917829915147303
-5.897779979400942,6.424700271640555,-7.453297532794566,0.6966088332790299
-7.67061786406234,5.911857356957047,-2.7536372118807617,-4.197070745150141
-12.320017586359388,9.82305800602263,5.823710868514416,-11.943173549323838
-17.790642427587787,10.876576731082057,9.439550655351992,-19.74892503142015
-21.10378029802623,3.2858751329164293,2.693532443305129,-24.6453592201255
-20.728248206235182,-10.022049112162325,-11.129618570277577,-24.801797959869198
-17.33298008127592,-19.184037358568162,-22.468028523528524,-20.208448467093085
-12.573125694790308,-17.050809021423987,-23.87834108225955,-12.524061955601992
-7.6743619913796275,-5.694967254422827,-16.057907981702208,-4.071359150797899
-3.1378012866112828,6.8222750906122664,-5.96214883635187,3.4390599175610603
0.8833239997142601,14.221920106504397,0.05193934244422728,9.452296792155458
4.39952917719251,15.776239133094027,1.0462318565541946,14.043812699889354
7.568768105654653,14.108417925304582,0.47695745492154556,17.135913894887523
10.5372626633309,10.715641092227532,1.0574814434821933,18.361031969836162
13.329928501731958,3.142323360001613,0.5497175471039197,17.47274787703055
15.951210478638682,-13.600086837751608,-6.974173249771877,14.642771626301615
18.347332261548832,-41.02526341085911,-24.497615869737153,10.481404782294016
20.10751851612158,-71.32472971175088,-46.160403710249604,6.03857234600154
20.461283877953278,-89.2713697866495,-59.1275253197084,2.657059827744937
18.834854044845308,-82.98592892788157,-53.19577372264429,1.3168723801868463
15.259696843579187,-54.09779509606553,-29.71964170464409,1.803547108384187
10.073157239207902,-17.016798470555717,-1.3589503318888956,2.649576121229881
3.5824360752967253,11.649944397803367,17.122928680346913,2.1575332426453997
-3.500729007687238,23.108356593146542,18.773784896093908,-0.3723248693034804
-9.540230168568865,18.65709504704206,7.451856467791868,-4.250940434051808
-12.711435145516939,6.157591141673213,-6.721394556561374,-7.974745376768722
-12.66486983301293,-4.62846802157499,-14.550057817706703,-10.186523831557393
-11.124449015638511,-6.423913746456726,-12.547764044974855,-10.467302628805491
-10.456464954193894,1.9727139152458544,-3.284189386805738,-9.574538728318325
-11.676782360292878,15.474397040657772,7.802446279593023,-8.869793840703657
-13.845937758098156,26.85353509783099,16.3269215954531,-9.205014866561408
-15.004299994277934,31.334028310961543,20.599608556722668,-10.18247658284315
-13.471125137654528,27.59073212932695,20.424826705377733,-10.4793552246018
-8.75740521612343,16.649012712061968,15.731407490281006,-8.867365268117265
-1.9619638788691478,2.149980820843951,7.4423366007992975,-4.986103360820006
4.653167090202085,-9.357898174004278,-1.0083986782048666,0.5373697889782303
9.007776147874358,-11.812024267638144,-4.980543378273959,6.369727744164885
10.506314124740047,-4.930779987737724,-2.5318928171536466,10.944541840563648
10.085998525169313,4.894161745196743,3.4542725604670137,13.111433366425203
9.184376348430165,9.757268927868841,7.71640182975339,12.672468370154887
8.898359241476156,5.989416650225953,7.2575462703556655,10.340635855664793
9.808641384080504,-4.407438719175156,3.660784268055035,7.160960432397385
11.759160529727351,-16.006856160011132,1.099434611814844,3.9643430534438773
13.37335806781217,-23.301747143072372,1.8632291640813943,1.1656089954253148
12.297238826545565,-23.908999080157884,3.4332223876680192,-1.304660714446451
6.74635819593664,-19.91721767806273,0.4465507313515299,-3.988059371562516
-2.782153485334667,-15.290314143493813,-9.380999281545938,-7.437063007924315
-13.283961768239957,-11.31995926461043,-21.276045113797032,-11.347176486773995
-20.77855530061112,-5.861997670261316,-26.659098381506364,-14.218389903462569
-22.484234611460664,2.124514652165098,-21.38441048234991,-14.299237139620264
-18.389907941755407,8.93450998560634,-10.470521976031531,-11.128550768608298
-11.386535052849819,9.063975906965474,-3.956489131123447,-6.128575731750611
-5.612595341388767,1.635747851517088,-7.758002699261055,-1.6400183514710416
-3.795145128600965,-7.422317308477708,-18.206800606081185,0.6642868931264054
-5.579188282426884,-9.735028008826992,-24.922626751205506,0.7029476189122499
-8.280592279798785,-0.668879466221233,-19.171764211142587,-0.1767808232475228
-9.17232015493929,17.565637959765667,-0.8668627433898035,-0.07760509348759013
-7.079843530086096,37.11389809133257,21.150652844832376,2.40433151162229
-2.3669778617025985,49.206840077942964,35.8110802809281,7.469650492177542
3.7275629563145034,50.253729591219496,38.25988894366761,14.070055329597905
9.529251422207206,44.455831769206014,32.85546828433793,20.40181018524626
13.464531517303222,38.931324360500355,27.827643633733256,24.470864608791235
14.928339471850217,35.05965902632895,26.60875526686873,24.565075481078637
14.61469512852495,26.053236946459972,24.607088920468996,19.909156177214157
13.618364514951232,4.972117944518711,14.766356105002593,11.41358076931547
12.206853361682588,-25.480308236328963,-4.199543889959621,1.6764405836170666
9.750472768919046,-53.10463549302951,-25.697801199261608,-6.2978317028934585
5.871131802807689,-66.42342788923337,-40.90963291807976,-10.804755384395078
1.4187601440895794,-63.827778448703725,-45.6535226055582,-12.079507007420403
-1.7799358346546295,-53.09930914920435,-41.91594417706416,-11.507248668478423
-2.150147382176694,-43.63893785727952,-34.12676190746033,-10.446160119916245
0.3536395375231961,-39.247850807456295,-25.041323796432504,-9.642890102958193
3.8013472496079923,-36.51446718629692,-14.981526683172014,-9.208953210677922
5.249814508362002,-29.132038989593813,-4.209419261399106,-8.780552239276073
2.826345430159246,-14.89728029197662,4.614348052323815,-7.8849012356474555
-2.6401192230085107,0.6383354567379929,7.110669891674424,-6.515958977369743
-8.09928197055208,8.446234348846318,1.367308515939446,-5.377204095958767
-10.58259772954177,4.830626432605246,-8.4760320800263,-5.2974555055702695
-9.137248028087203,-4.876309473071372,-14.359363220348854,-6.225883897076367
-4.847028455278433,-11.901562563949364,-11.431715275108525,-6.812397994230256
0.3331890729262034,-11.656236030792053,-2.640779576754142,-5.117672975483438
4.447300499484034,-4.691655203819432,4.915500876087227,-0.06348687899407197
5.95642310908989,7.57385984948998,8.039448123768555,7.358291218370741
4.360029911522188,24.685368376659564,10.778843588628733,14.149274784640324
0.7281323774662726,44.58764798302135,19.45236416460706,17.040390573522426
-2.805350764762709,61.64050382158308,34.67388962467502,14.912154189196961
-4.4133701820343365,68.23620667233729,48.165404022568744,9.796332628585674
-3.489827987417032,57.97521123277409,47.45148182734763,5.194694200099059
-0.5034192230348635,28.638983129959474,25.25323695827075,3.0672433133467303
3.4899743121099607,-14.707717381920247,-13.262654044768002,2.4340917361844077
7.093633919726459,-58.44715538449597,-51.45956530687065,0.935371338415782
8.916406720228538,-85.08596556088698,-70.87642903837926,-2.4468316736457343
8.20538017083628,-83.0895311746018,-62.82271336330238,-6.353718801219454
5.146343128687271,-54.23969269624341,-33.18487268242341,-8.519197908863166
0.4987821027989472,-12.373693912576147,2.4489820832448115,-8.025781093390169
-4.774787128159194,24.430721755607173,28.386232152559558,-6.171103165197396
-9.40198401903755,42.16463757691553,36.13413411935961,-5.264419267587692
-11.868786056136715,36.558188398158016,26.47390423261185,-6.440911843069422
-11.277411264476001,15.150821784282773,7.464494765680742,-8.407127550511174
-8.20533432359338,-6.523318285916668,-9.9400249575985,-8.417531399006059
-4.359642136049165,-15.082830777389098,-17.575314323240924,-4.88023039054322
-1.28977467563084,-9.214938050497677,-14.763496277634353,0.7772971180223076
0.4352500361085319,0.024915808779930226,-8.448454994768024,4.9833993001751
1.0290705987774138,-0.1946445382982412,-7.473729340017165,5.048306195395637
0.9986228234930578,-12.648126355992892,-14.903762744387093,1.5468325441890336
0.8662063028861656,-27.58757230360465,-25.017428818930625,-2.1357611998385715
0.7855267961678265,-30.961592965885757,-28.10220959066731,-2.6063603379098654
0.11357517883663813,-15.935294333921139,-19.23224501688259,0.8232096344430971
-2.2039491691424717,10.97456468309261,-3.3203617218908184,5.621765332658292
-6.3021425543466725,33.74752876493526,8.455070986921854,8.023791941935496
-10.545007593503897,38.761628188946155,8.29397981507468,6.018224734624565
-12.42449155719592,25.80898183832831,-1.078192816717345,1.0382435015122708
-10.496880583065739,7.991498591795831,-8.824805706484874,-3.1388191969812866
-5.489309604673395,-0.1644698029651237,-5.972918253034599,-3.4996525261561273
0.2745918565789685,5.262964880149093,6.902610577812308,-0.18965399002922248
4.453809659201128,16.8396497414841,21.504851110463225,3.9638861282765387
6.16481671018212,24.59463165414485,29.928221857442686,6.163163732896338
6.46936816635455,23.658095523620812,30.115686399835788,5.872852426992327
7.353143580260736,15.01004564965802,24.663060791429572,4.675070168998681
9.737589020727796,2.57277741380137,16.69732439893743,4.34592980945086
12.395749522216201,-9.401511430495605,7.689225204530122,5.166557415479093
13.180416095050415,-18.545534762774317,-2.065692734412657,5.822546231343948
11.419733499955763,-25.830090277373696,-12.16174200998111,4.72365481827604
8.759358014501615,-34.029329488451275,-21.377741989296585,1.5461656082478146
7.484282678920938,-43.916212236779664,-28.094704992739693,-2.2948825211024015
8.279551236219827,-52.71718974328228,-31.62425444291228,-4.70164857502867
9.744552792814252,-56.55393455533858,-32.84995094124,-4.581739191182501
9.744481609071963,-53.01217050530107,-32.65832022436963,-2.584378808047287
7.050749985011672,-40.95824589205382,-29.6342824210987,-0.24869851403345483
2.1344425300032106,-20.330654510474353,-20.612247806218626,1.3564880781692665
-3.10761878381085,5.452809933523748,-4.738630275714047,2.0193270013579068
-6.5744450020128955,27.95675360154562,13.256537933006506,1.7394149337373066
-7.4869150757576355,37.78724003520099,24.99387098560579,0.29362528395957693
-6.871200661818878,31.790046726892232,24.538562484733227,-2.2852541351224542
-6.308327202927113,15.801417201583318,13.15425379524435,-5.090883391146718
-6.253240650024742,0.18703431263950848,-1.2819741072178137,-6.673176696372395
-5.920570480410797,-6.806264660944712,-9.241568807857846,-6.2276445168707335
-4.768907467926677,-2.4795299113315408,-5.084789319681939,-4.479655545308056
-3.5399387463503973,10.261329554042497,9.798174315667962,-3.303420227708839
-3.5151615942527754,24.350310225944853,27.466847467138095,-4.2320035161275245
-5.017315197294666,31.68169987321806,37.61863902908789,-7.026781485908224
-6.920190756143565,27.722774480320254,33.79758081606834,-9.62974756616464
-7.496341573876797,14.25628747768446,17.683067910190157,-9.808574421413626
-5.6626015787679655,-2.5544125930442902,-2.081766390172156,-7.171627807327003
-1.7731850284168575,-16.58229655714084,-15.897121539834005,-3.5672012404046365
2.4692425827587487,-24.425742143521276,-19.408179798302733,-1.3044737321622628
5.160799315098614,-25.709161180376956,-15.484787222031645,-0.9205307247948021
5.7448969447562765,-22.744017342985934,-11.112400976367113,-0.7698049723837735
5.378374292584184,-19.186203969122282,-11.65927205465282,1.1888823661358476
5.365355755565364,-16.769600220293842,-16.592522978154715,5.203244077338946
5.268661499902252,-13.228466557104081,-20.26837549324146,9.12181787805306
3.096252885626494,-5.434019299042914,-17.767635441533997,9.831366417379142
-2.3765031882681082,5.109057808500189,-10.405627525041856,5.672346946767607
-9.730353862735795,12.24772745547752,-4.695868481605631,-1.8773472179502941
-15.576323777707783,12.027478418048664,-5.263249136464553,-8.6823605017803
-17.058965063234357,8.004444307780942,-9.40284523739045,-10.654273397461484
-13.840198997864949,8.082399447053707,-9.418306752821564,-6.7604538865078085
-8.128705792582245,16.527101517157824,-0.32260502612685354,0.2653317808310913
-2.9959927193142923,29.612244114946982,14.715301243617036,6.220504995659702
-0.15328330472223559,37.96945021605287,25.907771456814327,8.668155148520581
1.2897827061564207,32.81328617417474,23.95565136796052,8.362767067638433
3.911128837918497,12.332032365359865,7.424589018822732,8.061439813419708
9.40028828726505,-15.43487457573488,-15.241826394990241,10.095717086111705
16.65926347515671,-36.82097792699586,-31.321797456246028,14.552702938424963
22.468049952715738,-42.43736535666392,-33.061550391772535,19.070434305747707
23.908976189214183,-34.07062500698438,-22.638671781637562,20.2569343089108
20.109568308257558,-21.27659356487226,-8.586703306737704,15.904245998953126
12.212598713753943,-11.653852497180056,2.047081311013973,6.5851383933467105
2.5434686347562523,-5.823679113553447,7.733536027081264,-4.489290693863895
-6.06894535364163,-1.2628410858749832,9.887238105238945,-13.194702150690203
-11.107476221366637,2.022635566668878,8.532361020510466,-16.544805743705126
-11.57703263575854,1.607588255259223,2.0637972417819634,-13.944090073008518
-8.700101260951783,-2.8053636411893788,-8.935224585418746,-7.3341427966022135
-5.123069496045116,-7.16179191129355,-19.09064519479239,-0.2998854514844821
-3.1170508722427153,-6.027569841239265,-20.898465199762068,3.7170752259851527
-3.2542841180008577,2.5400603634687253,-10.849830150216357,3.337193327802841
-4.43719160359448,14.790621228385112,6.786609891611244,-0.10419378057962563
-5.020559899370843,23.564617201745296,22.434687349939267,-3.8429760288706007
-4.206379622244328,23.660274364684025,28.101530761946645,-5.7996030227661715
-2.739946725672554,16.214010094170487,22.843539407364386,-5.692855436534847
-2.158344810206105,7.512345464512429,12.262224564040997,-4.581780564254856
-3.003488724643545,2.2184811379492877,2.8479481718914137,-3.768223504636739
-3.8178590673420576,-2.0917901679084188,-3.357796815147008,-4.025015094352445
-2.345609776399315,-12.058412002828844,-8.834382742536404,-5.289426972499904
2.0588709131093395,-29.654352258075267,-15.97241926160421,-6.701222176196517
7.415278762283465,-47.46198160022482,-23.212781336691606,-7.04904288312565
10.67814051265777,-53.85240293272835,-26.06457402238717,-5.441128877874388
10.323176332258612,-42.621927501621634,-21.394523109564453,-1.670411460488809
7.556072491264343,-17.824305785780304,-10.23363568379886,3.8425926609677448
5.2470440931675775,9.098527882219239,3.09523080338999,10.0193377511221
5.5564605400352,26.163091025601364,13.757183266937222,14.8833617076894
8.07691147717261,27.1865181739388,18.6175081774945,15.936482785809893
10.081365333566513,14.601060320638096,17.02381853612733,11.710380837968456
8.988165248904481,-3.1668303752793796,10.286590813827392,3.427737417740088
4.91862224460709,-18.12742521653903,0.4550200962998253,-5.112338223136677
0.5579432724595482,-26.98982693159172,-10.340136228532343,-9.879250889754836
-1.8461582149851186,-29.452068221174205,-19.424833015527955,-9.421229476755133
-3.033638794387622,-24.72522098249013,-23.62713607548438,-5.824042499372804
-5.720854712224462,-12.639060571594118,-21.3718781599702,-3.056606870524332
-11.098408608031086,2.351643543583473,-14.927382594292855,-3.9837882214500984
-16.924384571553297,11.810344074721923,-9.346494316378397,-8.268557068536534
-19.350002226613462,9.993296435744321,-8.39296152563601,-12.740666763040664
-16.385083184951576,-0.9935288381173284,-11.726620035560185,-13.957579518547668
-9.556959207601968,-13.253684094750671,-15.94612423651845,-10.854149768773881
-2.6482789187040243,-19.167180192070624,-17.54028161639157,-5.277120385825391
0.9932597064044894,-15.500639984539848,-14.774824620550056,-0.2174840917111096
0.5262906895509214,-4.174637647096374,-7.971614698320096,2.3527786072557424
-2.138415008157106,9.031101293892487,1.0222070159418808,2.2614533440922377
-3.953021859786041,17.780432721491064,9.916154804785382,0.5965012186239055
-2.9807036092670387,19.507304967515864,17.236670530280534,-1.0759754030492779
0.5327642235947959,16.83093108729623,22.636439237291086,-1.3144417593206628
4.969977033015963,13.952250975797304,25.880468341853426,0.5644565637606377
8.858895905725637,12.113995464711648,25.949098141116714,4.078090812380903
11.51947508314276,9.604657285426033,21.74601975962244,7.978644698788908
12.696452496215022,5.527475289709314,13.737286876266369,11.184879717434914
12.157275296375001,1.727811384994337,4.455374364140875,13.17895786730834
9.741551021408853,0.7662759321412679,-2.8220549069965832,13.560416954636567
5.536828080397479,3.5645157058619423,-5.758146711958669,11.749007280068025
0.04133383714696616,9.60379509004332,-3.5845948052053336,7.627069661090021
-5.509587831544399,17.87506745396314,3.0280052624690215,2.4235292652643388
-9.072852113082757,26.50336028309706,12.034332915428351,-1.4581980604149232
-8.785333505007094,32.594533501940916,20.30634002220049,-1.862952900132955
-4.628559530197485,33.87505792494865,24.724132945441184,1.527433175876998
0.9916362348224073,29.971462287175353,23.389331961759567,6.62170174657625
4.7309919933553015,21.27485093632041,15.955551999187737,9.844806954810437
4.572613023984248,7.90374621173057,3.5316557417951455,8.27713301889911
0.8763979444222856,-8.300505027445118,-10.90264563236993,1.8696254400649537
-4.205638002954892,-21.667526797252215,-22.48877752629241,-6.010007835411532
-7.997832833699863,-25.615917101228586,-26.695516254378436,-10.657276461199721
-8.610368904555088,-18.97565628783784,-22.8623885313055,-9.472568682565958
-6.072030529213704,-8.166118217436846,-15.398520314620836,-3.9713663848163345
-2.511707107989968,-2.1186264298251856,-10.645526363751507,1.355268428448958
-0.6633480158565227,-5.2783771068124885,-11.875498217422374,2.3358107646424817
-1.6390555408882743,-15.01487730673825,-16.721811289779566,-2.0442353521378833
-4.067325192474133,-24.336920850483796,-19.18408385534068,-9.166988407992857
-5.334155829548443,-27.335432281636542,-14.954421814499257,-14.682221042863391
-3.5088774235629008,-24.249878185287272,-6.135651537855493,-15.321345861381321
1.5990973369889723,-22.038782330614456,-0.733391402372419,-10.76347175848312
8.381030099212078,-27.80214984319445,-5.803319712083705,-3.41814210392934
13.968626128905008,-39.79803613998741,-19.749949200316017,3.4849734969257944
15.492320288729875,-46.284843962739004,-31.918640786078154,7.86804846706719
11.867830077201749,-35.758385777978845,-31.260692351356827,9.434629250294108
4.812145564114985,-9.047247979268176,-16.3540391811214,8.992969301281029
-2.0337572175219516,19.220829232927798,2.718501779552977,7.529977174305289
-5.2545517269597966,31.222379451815595,12.266285187057136,5.770136133091307
-3.421357067113828,18.882838935281217,5.602059826994353,4.155886928266032
2.414068897127523,-10.627092556938866,-12.163915253454034,2.9896675748230455
9.321216251956896,-39.51225767603407,-28.309638591802134,2.6186787071979554
13.911771556871903,-50.70426138398938,-31.981250629258444,3.397324212989641
14.192127588456032,-39.075932121918115,-21.630111369921735,5.169600758473912
10.710480295665434,-14.580555206654047,-4.897000218979849,6.716536027086441
5.87316824534811,5.890491334135109,8.292435621852299,6.128406992178471
1.9601114944805529,11.38824836814673,13.001738170375484,2.23776534550888
-0.22768779257638558,3.1963925864898153,10.937011918964773,-4.137918819435899
-1.0830315588077402,-9.566534092985759,6.628356359199721,-10.45060158328417
-1.2827970393667856,-18.084765697789045,3.386179952459027,-14.028120198348855
-1.5201635542134642,-17.62240881841101,2.7885125340054566,-13.72256510378542
-2.6100946458639673,-7.167190250374503,5.9865146518187995,-10.512594695615034
-5.064323079294141,10.433113655882952,13.223438680755068,-6.8239443283205174
-8.416103868836704,28.063754171813475,21.89616004735167,-4.944136988882795
-11.377187134861908,37.71507420111367,26.94782019797825,-5.4186884531688415
-12.870777995574617,36.71199315037604,24.79039329238557,-6.658374152639977
-12.772019443660424,30.051343939119803,16.858985702592257,-6.309624244686476
-11.662547712322104,25.51725285144736,8.587204215600332,-3.3160786617092963
-10.154896516944357,26.47612870797491,4.503492566737244,1.201138134856743
-8.526195022570528,29.161921986641993,4.126625188615895,4.933644998551921
-6.72372685479449,26.149817519086167,2.527580265617654,6.1412971828135685
-4.577738133650886,13.143428776794716,-4.53761550040686,4.716253647335957
-2.21041402534655,-5.421802948660012,-15.103893945598324,2.1056875535479054
-0.3339740045475382,-17.150995959055578,-20.836895714773206,0.41419566850775563
0.14380437113494418,-11.105154566857703,-14.25012508752452,1.0970781444101516
-0.9291759039991285,10.75728843659607,2.627275804069536,3.8812701030651424
-2.521410079031363,32.490359598980916,17.853012807766973,6.839287110061356
-3.1439192981126163,37.24910879744407,19.888377764715152,7.844176956689295
-1.942582612937923,22.474399337847412,9.089805081596332,6.210857316235723
0.9355716632331779,1.7780412415862314,-1.595527014605036,3.0097167724202
4.672553911980829,-7.745443569210776,1.962102342170484,-0.04862261853810803
8.164769538121483,-0.08152043897825474,21.96807523034931,-1.878664331630197
10.440637197923685,15.081335223742759,45.1974647338337,-2.4144105669897242
11.296907712447894,19.3931855607703,51.701093518355236,-2.263586085850402
11.480116744269097,-0.8800773499188104,29.21047553027588,-2.21135599838686
11.678861417333984,-43.23765410192931,-16.8088839283786,-2.8331509066903124
11.233728156179088,-87.41350388307417,-64.79730782813809,-4.263230164948433
8.445016061113298,-107.73006613924355,-90.29299585963176,-6.199050442846819
2.6209553298567045,-91.67889149124889,-81.92673505183008,-8.04266861605917
-4.402266915650729,-49.186901438306876,-48.349313686423905,-8.929132918357178
-9.21534747234462,-4.214508076845384,-10.84499611656401,-7.777822339955297
-9.471885268396433,23.24582589455734,12.038364782771831,-3.8662797114717393
-5.7224367250689125,29.054034565341585,15.572839351622171,2.185929144485059
-0.9802900737820643,22.996706641712567,8.194983963869149,8.139437475074619
1.4473899633687866,17.94601491867699,1.8381759898815786,11.390797252544996
0.27246040854206627,19.863532617972687,2.2314345002324933,10.918235784485631
-2.888277096571334,25.047389057645972,6.256674020836214,8.09928757267813
-4.806265743663959,25.117661856876577,6.6303341147112365,5.656266096243605
-3.2295775464360563,15.165997535817844,-1.1983190599161158,5.764031946434924
1.4767160447142778,-1.663852523774834,-15.242958452901961,8.803555934303592
7.102362031049371,-16.723808615619664,-28.059297681278327,13.341429772791573
11.670756828233301,-22.4185827121104,-31.14310422738659,17.040981468262476
14.427458371955872,-16.565361185271303,-19.976837666843018,17.91631606819126
15.056268479101133,-2.334541135018748,2.5382205860689027,15.239895224197511
12.80607814770381,13.493393237504721,26.03252423241855,9.55977682536097
7.042641110606279,22.245232426139385,37.179148992541364,1.999574066156824
-1.4398005652516235,16.943957597824873,27.780783886549564,-6.309756142125152
-10.063474802472486,-2.2022229215164475,1.635032786272856,-14.170014441310055
-15.631120747444173,-25.716809958667422,-26.12841595294211,-20.121054006816717
-16.11762653215213,-40.309510638040635,-38.583077023060945,-22.787682180798928
-11.927923142931297,-37.75554899333848,-28.502597310650394,-21.58585282321077
-5.845963892855775,-19.222950421893646,-2.4585020904700374,-17.06745559302228
-1.4200147686112599,7.121910959335414,25.079544228053134,-10.6827370194943
-0.5914044855339852,30.95972229607691,41.677758289712955,-4.312869498571564
-2.4558980156086028,43.696926591760025,43.14095762472936,0.23881172130992692
-4.422233117221377,41.31542759543364,32.921850852683114,1.8643045517553978
-4.677190342572196,25.61105921834015,17.02161568026168,0.6298957087986556
-3.493764720893118,2.33244471931947,-0.7984422715325599,-2.3651248110025467
-2.3576861524574326,-22.207384399488316,-19.524244895984307,-5.686829648486251
-2.2324471210315644,-42.50139459180773,-37.3937260327179,-8.149802312560613
-2.683332003113871,-53.54925009792415,-49.353536471884105,-8.934362874947913
-2.254742404072969,-52.5281777665706,-49.71906500785754,-7.625663864121606
0.4024770783475529,-41.916419095699595,-37.713164654264304,-4.491932310032514
5.224037900774305,-28.67473810192634,-19.28601754911736,-0.6001450876936927
10.11981110639264,-18.31244045442087,-2.8062320305284434,2.699828530431944
12.048295457274014,-10.632595546225271,6.631528005294408,4.579770128017551
9.387798838891708,-2.4957859945389105,8.876460486146575,5.044665783832098
3.4220441415436227,6.706160171003483,6.59623466299644,4.581168006215158
-2.6824973767271607,14.41984782598059,3.116885700189557,3.7019072476463983
-6.277283108574985,18.97831494312449,1.7578922781912871,2.830338169385953
-6.531566525267264,21.8160271820407,5.1481558285198785,2.4227494567247225
-3.9352739176388503,25.28174204450905,13.726824807784983,3.055008681533459
0.5705167022687035,30.00438687072994,24.95261002687528,5.315563974708471
5.776181749097777,34.843318703671734,34.5156243990742,9.355569878277498
10.198229833052102,37.676307146553235,38.5846580635816,14.165843798196063
12.50072084604837,35.472866044109125,35.37544990806204,17.297056633803322
11.996820072356158,25.525771099147956,25.664869072194293,15.91684167528705
8.827144531139279,8.602130365249057,12.647799593395513,8.964804404176096
4.046273554041112,-9.59059270669833,0.870117150914246,-1.3137602456223898
-0.4059974288417401,-21.63653950622261,-6.051289356093675,-10.116208955349816
-2.519334542322111,-23.67274035130755,-7.785085890749522,-12.930351562527028
-1.7306614861625969,-17.779541176758716,-7.804463002077888,-8.487870302205522
0.4207841131186124,-10.43192612105135,-11.362518830468012,0.30555345548386853
1.642488829013445,-9.038749730658157,-21.938832253179303,8.158372438383369
1.012788863642243,-17.705438919554513,-38.03453662513321,10.74947357261021
-0.4152162472434654,-33.50590271644773,-52.614425233896895,7.36349473435489
-0.9712051826865766,-47.12743575580795,-56.9528149853072,0.9148620921591047
0.06378533497417846,-49.89208411891618,-47.347232250399735,-4.547372632860496
2.1561013998435206,-41.39086735945563,-28.97310053678743,-6.6917884802352505
4.176393282833765,-29.036703872536545,-12.08223746892155,-5.85820793647909
5.024356014243462,-19.570955863852042,-3.2512920297464993,-3.8894935842865945
3.9258479432536064,-12.391093388473093,-0.3199677886841926,-2.4898380086691096
0.5714252440593577,-1.8622205875632125,3.996469109527111,-2.5264522216550227
-4.8678329088932015,15.369249782509366,14.161476823229014,-4.15910261619516
-11.695554561839227,36.414673325838294,27.74476642169555,-6.98861149681544
-18.36157747650723,54.06085758438045,38.296751660370894,-10.042704642959652
-22.341788091948303,61.432017236149235,41.2823556782826,-11.995725390515847
-21.296157816460234,56.37783167387688,37.457600608159545,-11.728534996900347
-15.268500836333155,43.605615378065934,31.34486848412278,-8.886231968587227
-7.672865633423847,32.2417272412262,26.77168529690132,-4.150005355911583
-3.2765733756314352,29.173135207084382,23.71046115287681,0.8882808558257416
-4.520921217523487,33.62116999716367,19.224812431302066,4.401673937535094
-9.525310869875558,38.159187975312435,11.012245332056596,5.446043163086469
-13.489375350894054,34.52730200784511,-0.6592199871574717,4.712640604049032
-12.091597879992557,18.43862202642632,-14.263976340753798,4.013064442034662
-4.280296427548286,-8.871802068444506,-28.677440558413835,4.741260704700386
7.120702844571559,-40.55870777973169,-42.27072134983999,6.726545808156783
17.12896618570191,-65.49874828667794,-51.07703308074074,8.526691291135924
21.676544791780845,-73.2557339114945,-49.907832917529646,8.739742923562998
20.127357245428975,-61.217172836058225,-36.78461917947825,7.112767368640025
15.348802519497578,-37.641617922371545,-16.482688319903833,4.688180898007128
11.278897379565725,-16.77795279611534,0.9714281671607667,3.002031627454716
10.11736436278201,-9.674976270204048,6.68142126735989,2.8175461313246917
11.324809572562815,-17.53609869509382,-0.3064648028876252,3.2806366208678743
12.61797497013873,-31.256645384780036,-11.242567009866967,2.45383951863647
11.67545736000189,-36.971419724419135,-13.53079918279448,-0.8511218947157925
7.538848475884169,-25.564425605620926,-1.0832209707816793,-5.582843298945471
1.3053809098844253,-1.0352548591718354,18.924888238549116,-9.023188971481197
-4.3279577057540255,20.154811710459377,30.167942395330943,-9.109782335597677
-6.7611734062994024,21.59431723815398,20.82341613236111,-6.238002006806092
-5.29113897398558,1.83904196071784,-4.635502741800982,-2.78061746534858
-1.4212418668027078,-23.071936119483446,-27.396658180869096,-0.935938198568442
2.4632533808831694,-33.03360250188679,-29.63293387526193,-1.0265144348378954
4.571584135774034,-20.294243381376415,-9.35619487557754,-1.6429030732325356
4.191661129567852,6.203679712848615,18.824739110535813,-1.238746598069307
1.5393061475435297,30.06152930859732,36.69577049171228,0.320398607736418
-2.343550452209745,39.75737504213085,36.40448219598185,1.5866035285941107
-5.858200974258051,34.60299230392377,23.879422485974086,0.9368100590725174
-7.646066600098994,22.46409002015436,11.108272390722231,-1.6616695064062392
-7.326461023347345,12.259445301671619,5.3259848395679645,-4.281027067291797
-5.388798926578496,6.504518117104154,3.840450760798603,-4.596915791536102
-2.546671357897344,0.10555809491551928,-1.9925557778096101,-1.925849657089806
0.5611012590162598,-12.794809245168423,-17.40096387461574,2.253204928804085
3.273515757604231,-30.797581564180135,-37.94501766787373,5.6423967825931065
5.019854991703078,-45.029798011352625,-52.31432075117983,6.861144725648905
5.6110726424919175,-46.66834069208388,-51.405860478030306,6.117149406360913
5.128916014644174,-33.66722084343239,-35.13490159025994,4.675471774101228
3.544303721020444,-11.202877223787409,-11.807799105616802,3.80917963304739
0.8275005530167695,11.67496593132929,7.694819455466754,3.8515397154697784
-2.515181045248559,25.69406009596373,15.862641294408535,3.868397872021745
-5.470282647443642,25.452284984775368,11.759450816726993,2.361155339663326
-7.332659541385754,13.079919792115817,0.6884981731876317,-1.3599467455796637
-8.217686606445305,-2.6954534751398205,-9.517068648780532,-6.3871455558913866
-8.583435972490344,-12.956779474723215,-13.390614466805664,-10.862862634182784
-8.551249031293924,-14.404755279662073,-10.193867028591495,-13.365937290463567
-7.917771956595238,-9.001941060864535,-2.2273040890270144,-13.604980530080656
-6.51235076248435,0.2437368807086686,8.306748721380345,-11.998644139625554
-4.251902951182992,11.465762299394664,20.3440993856164,-8.993202154438464
-1.2099615192727673,23.017255587110984,32.48238201869917,-4.913517638727286
1.8803156848756168,32.72602989312875,41.53882419114499,-0.2448436992198767
3.482570023260944,38.52183840705371,43.32572615546808,4.159121497055917
2.4125336873926524,38.73165641623208,35.359863240139966,7.202333288868718
-0.6260539818736929,32.0755654451167,19.426187603150005,8.02587745955246
-3.1547983073266654,19.197832799433908,1.795945415507953,6.664995922505516
-2.9247306436551725,4.444793860798787,-9.872970934153809,4.344315298242342
0.3312259169382928,-6.148521865975094,-11.603900367359927,2.863614727222371
5.113169442737469,-10.330000569013153,-6.406554501467122,3.3531306558621368
9.592703615162131,-12.079865048297249,-2.296787173559833,5.495346472540542
12.572012907511644,-17.046684144514725,-5.73275633294097,7.91612144481192
13.57342785159916,-25.94472106084458,-16.00223102939457,9.247391546708766
12.73183722890113,-33.58018950481982,-25.835005512015773,8.898275577844181
10.701027407104409,-33.953924821183,-27.60426152965288,7.186202039505284
8.300354707309921,-25.376185303102673,-19.286373869475376,5.023888764748607
6.077458581966698,-11.451826464860122,-5.372962159462602,3.294386459324759
4.200670421089259,1.2728557675520225,6.9016708171737315,2.1300486983292797
2.512073946358332,7.10893367854133,12.256243282697394,0.7534508317704746
0.4113236099839367,4.988700797898145,9.751493181078178,-1.6894343604167275
-2.9981188716386686,-0.6288477772775036,2.0547632216142504,-5.0310215587655165
-7.964469879169242,-3.6422028853757236,-6.948228074825253,-7.998914439342115
-13.115898701538455,-1.6080015906969163,-13.825483550138273,-9.316615943417643
-15.95057011377102,3.2868412298436445,-15.822796182700653,-8.746019058624235
-14.766027601533354,7.705007184287035,-11.43184743198,-7.027967438928142
-10.105078626925064,9.641086915150469,-2.3962988811193355,-5.079765940703626
-4.2605781817101755,7.636503891946456,5.456544115860629,-3.431590790039458
0.4346194351434929,0.49896499381362364,5.692675323304343,-2.1840435218550938
2.8753812712456517,-10.341890819689322,-3.0154802816217914,-1.109188059741334
3.3978436459947847,-19.80663832804171,-15.073493065644886,0.25695867074886997
3.3088288506266865,-22.761928698539375,-22.54892406093847,2.3368733292897557
3.998688969096851,-18.628166814108898,-21.588915527861364,5.1032801083909805
5.905939585860243,-11.496116756668904,-14.59115734840675,7.918392131587926
8.15035431970635,-6.177303231302589,-7.088211104764295,9.795349078894397
9.377079506030224,-4.911320943235105,-3.0730439254656545,9.894069976876544
8.973963166679017,-6.862186791753822,-2.6242576547459735,8.021038632874312
7.312750495593034,-9.132775894584482,-3.0454871619088766,4.9160692537444515
5.012931231170725,-8.72239676620964,-2.221050289579664,1.9816782465244762
2.452944515394238,-5.480476201048945,-1.293108379071484,0.360023438063228
0.021326970761332036,-3.419893560617826,-3.846959313814442,0.025308662222790813
-1.7409905869899411,-7.142564003158664,-11.637521108647782,-0.17944756863146466
-2.6686593675780585,-15.702008422996768,-20.774791617711642,-1.544957548492635
-3.399911424796303,-21.08936764778848,-22.836595733950777,-4.523180247895034
-4.841448118516161,-14.396900542587927,-11.0088132315115,-8.50686553398693
-7.116606485147519,6.019558859683202,13.694693611814879,-12.135066288147046
-9.154262919782315,32.009559465557196,41.416517152867954,-13.767461380003386
-9.364037945683297,50.09661326094248,58.53101758740942,-12.315253213685374
-6.914140483329553,49.03813699999607,55.37679540701838,-8.35881512572757
-2.8081251130781117,26.750210114294493,32.19642239510559,-4.457634128148246
0.1284743117993219,-6.38123554838548,0.05405569610818458,-3.6558740348839325
-1.0621721504243076,-31.49288518262777,-24.495942432211404,-7.024423247379468
-6.91158575098812,-32.86828677137347,-28.880707957479263,-12.507472555299989
-14.409863186564762,-9.479557251802683,-12.297407702501152,-16.328506894134378
-18.923188726829487,23.8211941968627,13.922117839693438,-15.791434898316353
-17.750344925170037,46.72803341382839,33.529503065350916,-11.147323690833677
-12.016974870403239,46.12200192988454,34.49981159056571,-5.178371909957843
-5.24815055660212,21.864669172916244,14.510169923337628,-0.9481000462685463
-0.25786923655607186,-14.8850475419434,-18.491787728063056,0.6123994794263317
2.7542952287941116,-47.23778468684003,-49.61604247365373,1.429456689168241
5.6109764538292435,-60.37530928209414,-63.80219286656252,4.524778242204068
9.991349862421428,-49.676560203985375,-54.18088659399384,11.02137207056384
15.591476942071461,-23.6524400040058,-26.663687876614592,18.627655469754043
20.144053277998104,2.212170307864311,3.919570811678162,23.275101789561518
21.396447480278905,16.29208766997413,23.93198370363216,22.57115571231842
19.24394352987158,17.31004553039061,29.179894843019117,17.842797157247688
15.721295906216849,12.439323713914675,25.053876203782067,12.92809617678872
12.776923515438728,10.243456371071158,19.597794284174935,10.988433687532426
10.492443742167879,13.749270114606366,16.06416540796855,12.201488071442661
7.908546910258139,17.86149014219607,11.308159237643387,14.060433810778893
5.146793987988412,13.762300403349693,1.1214238761211028,13.702396629562545
3.7880269079604028,-1.8964201696959597,-12.96392733938995,10.222533520110186
4.963493674322388,-21.715314902078486,-22.936687739881986,5.13493351027469
7.742554835415619,-33.28214119625347,-21.332242522380323,0.7519962235549732
9.81711200851884,-31.030437719976497,-9.045290458766319,-1.9103521225104794
9.419564108967094,-21.2093284044594,4.522600103090569,-3.7115535893706446
6.297055677039879,-14.668316324127517,9.302229184881567,-6.078139711371713
1.3054177435814174,-16.216912058501187,2.492036165356709,-9.363234216991389
-4.305234128715154,-21.600000706208345,-10.320433179272543,-12.497367027619617
-9.292372403748606,-22.78313318048315,-20.230816864315795,-13.927828073121303
-12.712447646715141,-14.440223502050186,-20.924301313786287,-12.699342890113972
-14.132293095999005,3.058747664517614,-11.574348618785024,-8.949714100891201
-13.532896264762064,23.85691971651463,3.5805528009056924,-3.8940080115892566
-11.121491933310695,39.216569407199124,17.77602874753865,0.6063018065052531
-7.457602271254568,42.32769254947666,25.126045216211267,2.9490369009560564
-3.6326009223806284,32.648044901296046,23.29734179151361,2.7399282603613386
-0.9215129147557862,15.65692877859591,13.799981696165801,0.9090718990960119
-0.13723946286694347,-1.864635221868502,-0.06763495836084105,-1.2328150213889093
-1.4857680517458818,-15.79819319124985,-15.292026139040395,-3.078482499898535
-4.8549982532653475,-24.40625013519707,-29.174700700877345,-4.885991602258779
-9.610682253269788,-26.552534645737087,-38.33398998142602,-7.006567096119918
-13.918880429596848,-22.3568376114515,-39.38378226562167,-9.106898879188225
-15.045913882412986,-14.963095589513404,-31.53752893269268,-10.203043328981318
-11.313725743989357,-9.422687509010016,-18.206541302100046,-9.489503653692623
-4.00396796035296,-8.83224443446418,-5.3384047058953605,-7.197389560136731
3.0269306193299417,-11.738951920723453,2.3960788439364755,-4.606166266017042
5.935137431667968,-13.00055403567081,4.61074985273746,-3.0509545057939484
3.4505402270846814,-7.179942218711827,5.095904542762596,-2.8217006981828225
-2.391915191688553,6.917385823730115,8.231907495672843,-3.090285250742874
-7.479449510754063,23.0300571165678,14.463549337786867,-2.8946911257879844
-8.025539052046607,29.99750997572427,19.304225964319873,-1.9675075395242292
-2.9922041087836484,20.885167935375943,17.661194002568575,-0.49693784732489193
5.05105085585898,0.7794551875741819,9.348083800715001,1.5636745177982367
11.611097372967555,-16.07017709913556,-0.16878211822901912,4.418128412024035
13.374112495638308,-18.060899538915155,-4.456685036278552,7.599961925463374
10.159933037902176,-5.174063362105513,-1.2269446098104322,9.699963742231793
4.376298079718504,12.75868712111582,6.48543342826912,9.363707034684614
-0.9630286549264375,24.56997449227831,12.927849318863327,6.5995286981411585
-3.8552602852296136,24.877147445468587,13.60018920425751,2.977438407077739
-3.8629681283191295,16.278732167302593,8.536233390788379,0.5409647157874015
-1.8220950653899595,7.040188352194993,2.9309138474077914,0.45399220263088014
0.9772852467372918,5.187650938055804,3.6403443214525044,2.322030472454513
3.5835921687353265,11.965552373103023,13.169474118656,4.428019631666879
5.427883627582093,20.1462758961012,25.96714804591247,4.734757330837971
5.812355405490691,19.359903087036482,30.693525941303584,2.2382873042897025
4.081611946342508,3.6095552096736196,17.415104042444693,-2.1645483744970484
0.8300656370364595,-24.97008132577815,-14.682230051322296,-6.071222419241763
-1.5346334662170498,-56.48745864450609,-53.61324866941833,-7.061512907262316
-0.42474688929066323,-75.69178246848858,-78.16296628276028,-4.186148666886811
4.365240935633129,-67.78834616316703,-69.22409584822503,1.5023391964147905
10.093479113630655,-28.89237225939954,-23.9030160202593,7.51098786605312
13.291766191841814,25.878412408136143,37.99942770952113,11.174338500417747
12.39864908914455,67.83414596877948,83.34964261784047,11.082187244939472
8.352384975657483,73.95102417406925,87.14807846268394,7.8791728445203635
3.2810079220333828,44.426192541595945,50.31860094110615,3.733951260832115
-0.9697668472057831,2.317258773703252,-1.051177028980358,0.7697227355326157
-3.461617954855721,-24.517082342120904,-35.02538667061612,-0.2082541096993647
-4.087481856263328,-23.689101559643806,-36.441090846499115,0.28132884364348204
-3.1591690783037465,-5.530525477270194,-15.652253898431908,1.1983535207338771
-1.007367334594028,6.47585246341429,2.053534242360434,1.5535671550461936
1.9302451980702342,-5.432238768701655,-2.796449938417577,0.5568505844376012
4.5978968196881,-38.62899801134836,-29.009696250245735,-2.1235207417161033
5.3918423165190195,-71.48257480080392,-56.984245630682786,-5.908005356391713
3.4065751659918804,-80.84727318648778,-65.68774616649387,-9.24059992121291
-0.35849915494471385,-60.61827295808319,-49.55849792589079,-10.241396220159432
-3.6002826680024413,-24.396120346092545,-20.91019833615641,-7.73587934984491
-4.817609064789636,8.273156425602012,2.4694806448383853,-2.1456859713121994
-4.57693674547396,26.308713153368757,11.28808889050613,4.182429112488565
-4.563520087163425,29.53786232155136,8.226914902121283,7.723782779931537
-5.7170125701968555,22.526945767869435,1.4443942595284707,5.766198420121011
-7.494333327439806,10.15141781222472,-2.822112223915153,-1.4389387412924912
-8.55572603436278,-2.2306036962483975,-2.3595727153312724,-10.284524222870544
-7.746676496930526,-8.70211694999958,2.910636849230277,-15.929195722580072
-4.677544467174323,-5.572533177350491,12.364768061148396,-15.393127508190448
0.014011950475609491,5.392114779647314,23.684700953591527,-9.262401085272643
4.760746052426964,16.626272785606893,31.517021420855183,-1.0694000063200615
7.711746183575941,18.703634775179687,29.369687789515474,4.812362336441099
7.562245328441206,7.6589102468391905,15.340180056337825,5.479185255667322
3.966939257909297,-9.057990245502316,-3.2382921544143435,1.070883301993984
-2.4042625368833366,-15.332140758506503,-12.82979028870758,-5.194742792633327
-9.773523105488644,0.6529824018933454,-4.508698874478818,-8.896890093537932
-15.422249429642887,33.624222886677316,16.670135914007947,-7.254676314434301
-16.758543288187425,62.28496521845399,33.88924212981207,-0.9367882376427822
-12.887087061364442,65.26411702194778,31.931641687948982,6.477289886738263
-5.282260180347727,37.620120177248914,9.802324712279306,10.82518408608286
3.120341639953564,-6.636975903207249,-19.007291929214936,9.80026731985264
9.54956961547278,-46.28727592661043,-38.348734842156915,4.164287985881706
12.523786993639451,-67.0303244106163,-41.87346307743357,-2.7211201100790916
12.126598657408888,-66.94935501260606,-35.005546379401004,-6.763980372455067
9.621655977291368,-51.74164751090108,-26.111038166907235,-5.426333528995165
6.520719362378043,-26.490087049043073,-16.86548616093217,0.9661300751966715
3.5535809143232386,7.471372404552443,-1.8992633018420504,9.665659170574424
0.5070032816965074,47.590192776876904,22.122620240906816,17.1492054024979
-2.7808268022464304,83.31822846316358,48.026719272512466,20.752305939704794
-5.490727000043907,97.84646302157924,60.49268505379496,19.561967709502103
-6.264941331077107,80.399879195252,48.70197496494413,14.51164788452676
-4.531209786836476,37.6435305478305,17.380952826218692,7.743591378185399
-1.0474128659971798,-9.095155494388106,-15.312723365313055,1.4266194094348672
2.8581808799337183,-39.62241425069952,-31.911252326767944,-3.2591675729917116
6.228624968432327,-48.45477693136673,-28.670163055078024,-6.178556548983858
8.648644344936836,-44.342367374529694,-16.03049257345693,-7.512181827105213
9.974700066942818,-39.39248953520206,-7.837876501798952,-7.312487203158311
10.217256001249055,-39.68841547190121,-10.338539965775343,-5.881485100708927
9.443508004039858,-43.58992478289973,-19.632934182073704,-4.220979878118689
7.5199599983391545,-45.480269215343604,-27.22146062441796,-3.6388747885179504
4.166010465413615,-40.897368499647996,-27.51753013967333,-4.768485446234245
-0.4008189436229528,-30.26861830545956,-21.571873467978396,-7.050182463810206
-4.988392707034914,-18.5332932544234,-14.786258467317833,-9.143389316436114
-7.971676207317919,-10.187368050296678,-10.906946199602595,-9.800395153339444
-8.427119281885052,-4.65880025785979,-8.021024412261752,-8.588084118535434
-6.680098041027976,2.290885058297252,-0.8607563081028963,-6.157732874630216
-3.9178886063992757,12.625969490695805,12.657867468353867,-3.8593729669805468
-1.4974431028962047,22.76248789923356,27.38151729632442,-2.720965301006266
-0.3679112115223302,26.29577985478133,33.55026064332788,-2.5290800510071403
-0.555368595600776,18.96180171293356,23.951812682836152,-2.042703862245886
-1.0232029367761015,1.506809158278275,0.004546146311897492,-0.33018653687058186
-0.4578058321645838,-20.03721430231145,-27.642385110598955,2.14067119856323
1.475097816200795,-36.37979311474859,-44.89005056088006,3.847561316471495
3.7908906927274213,-39.80303367271807,-42.96300998522243,3.566903851516402
5.1996510630717925,-29.34265630719027,-23.737551588812163,1.3194860799242
5.175947131588102,-10.927169489529986,2.868785840009792,-1.8107243657146979
3.8997502185864987,8.444935615896272,26.91016442390842,-4.517345593060831
1.6617565514907087,25.73569172665704,44.10227778398812,-5.9971426764779965
-1.0735608213707049,40.1882169520701,54.49029883279098,-6.168287295656447
-3.1889954342713165,48.44055825122587,57.41186734722927,-5.341124561570485
-3.242213957093956,44.56751907893662,49.68215705887882,-3.628325631660298
-0.705512231706625,26.2668988152672,29.330575682873373,-0.7265635553835808
3.1970401929267362,-0.1303166682967748,0.407676885876025,3.5216607814729013
5.999873062249431,-21.943364934649342,-26.858117894537408,8.30131747878405
5.443618561928783,-27.84405682318871,-41.39461242788048,11.797611486959374
0.9334372853373448,-14.77020212687121,-37.90154042398045,12.323799225563445
-5.716976704911341,10.208047094083614,-19.93111859214398,9.725329456797459
-10.944565770111572,34.00065434736996,2.4050304465172694,5.822371647012488
-11.673783344664214,45.69919307224999,18.465276811668154,3.4252290170847552
-7.704042494574689,43.47172393102566,22.920272979699643,4.494558597869673
-1.943812701754086,33.97560689779142,17.424663575256115,8.63382161569915
2.0086501833223753,24.49994980625426,7.256181091962286,13.08982842297868
2.633247174884027,16.181240767065706,-3.4971896165501883,14.569692053486715
1.0651758482276414,5.432044447820541,-13.619059861246296,11.661478500059188
-0.49628669030647365,-9.442759182463355,-22.80305251559076,5.8229312806399625
-0.5949922238952062,-25.097097629897746,-29.673146915334694,0.048746235641706714
0.7540725692801261,-36.17882597027541,-32.40048331439049,-3.4711825889964363
2.286344611724223,-39.43867433818829,-30.465597970150416,-4.593786881812026
2.296348519206816,-34.642536329366735,-24.888707581609953,-4.677429823902561
-0.14039259265149592,-23.545283217285633,-16.794782473696372,-5.272093126802004
-4.246319527589266,-9.254489799658623,-6.369668884408627,-7.193518775352976
-7.899414487444019,4.254843666728756,6.319295021029401,-10.230049269055684
-9.119708189629128,12.991164103624925,19.275029765412597,-13.332961153587169
-7.3232345028989565,13.574543968849445,27.680566450502557,-15.271261787825635
-3.4263417781716403,4.205547425982721,26.336937633333598,-15.466034097604417
0.8355874158136835,-12.988523847681389,14.374441953498106,-14.268935234972837
3.778423947206052,-30.74186387620544,-2.5665370988430243,-12.354696011019746
4.736308221271342,-40.79767685087293,-16.299932939713816,-9.936988561774413
4.707520816916265,-41.34325726796345,-23.056153345373396,-6.736342906057407
5.643215834219933,-38.812501082400516,-25.842554319405956,-2.653338140024198
8.371303269616007,-39.95158582668469,-29.225719464193013,1.7077547529812185
11.192236088457788,-42.61997425208707,-32.45634586940395,5.193203962451514
11.118958641482614,-36.90471493355101,-29.108764144304576,6.728850496890758
6.863830108399794,-16.346401141228537,-14.257837813998343,6.011840994134217
0.48486041180998146,12.76872543741776,8.032136239423359,3.913185761856118
-4.039672389995978,33.954197458824176,24.932680229700672,2.1669387460299294
-3.8869348860176327,32.911144676547124,23.98460792088273,2.2304697558850686
0.6118988893757857,9.383655816053215,4.117277207718841,4.120983845417663
6.435944610175779,-21.073777750592193,-21.29526302323904,6.406957629701436
10.18016427436849,-37.7250056895026,-33.51151121864703,7.441765277888943
10.458073823025634,-30.51699087415399,-23.131241093711285,6.576902396642403
8.618859829889631,-8.015610864483783,2.3260126350349313,4.306990011583106
7.134680513763157,10.952759472043864,25.29146724496755,1.6797240104903852
7.036292677265204,15.263334119539598,33.43358754213697,-0.17189296436063964
6.894773805227165,11.465815306147723,29.093962895668927,-0.3050973484020264
4.402874793038054,15.452613595583456,24.436858133728588,1.5371923876218914
-1.1209051587591639,34.72323301670068,28.105585008284596,4.433166014092621
-7.840132934262365,59.643136605582484,36.975873942461526,6.510707565573405
-12.774036123332007,71.66151636977972,40.32263757612681,5.983183682716061
-13.92039273104306,59.36359185818115,30.987803643425693,2.245944848482574
-11.374128362295025,27.661000495931596,12.235640448105306,-3.623424978803946
-6.896138923299991,-6.481444269248192,-5.626409071276472,-9.102857471038817
-2.5050734294925525,-27.148688000073715,-14.863353807578546,-11.244884966275634
0.7893124511633318,-30.63602204761132,-16.802795630462327,-8.35988898274781
3.04819301364074,-25.3910326395319,-18.953172098360785,-1.4254092736987516
4.257598398432733,-20.882171981992073,-25.5699231273408,6.173333057613545
3.4954141349303027,-17.050480808929983,-31.737270096301156,10.78239200804325
-0.11333793687058685,-6.603454198313863,-28.249187666363305,10.830171170518657
-5.496159799239281,12.343702871911336,-12.693340352729953,7.442191881607515
-9.438607872756702,29.500377586242788,5.940327924908877,3.090598112808995
-9.09460779061755,31.424939019632095,15.275730025244872,-0.2753984920595635
-4.7420791260058275,16.466825395451114,11.928175185410357,-2.1826357334838202
0.3383558126932266,-1.9644158883796725,4.918567560472433,-3.3506462274191797
2.791791741780786,-7.652431501964847,6.6506801076568465,-4.706254949019466
1.8860189348859546,3.56249212288799,20.54932590143177,-6.462099929195902
-0.37695023495682717,20.074173226183863,36.730988261180066,-7.901100460781739
-1.2779994476981342,23.937388811888372,39.23001313631953,-8.003228123755946
0.43806767509810535,5.299530394123743,18.92887464923173,-6.306724214240555
3.6885814318379304,-28.788037886318737,-17.939769203708234,-3.20784693571772
5.908064572973647,-58.25912183620321,-52.85836332402193,0.36926236219447883
5.055422567593465,-64.93711543796795,-67.91484715351206,3.325345049997929
1.2232977136864418,-46.63890325302643,-58.22699968628283,4.493063672930635
-3.6424286430277655,-17.6783563081613,-33.6976678691792,2.9285141315214007
-7.614974842865671,4.378195086212605,-9.691451842647654,-1.3854778312993203
-10.19846267466044,12.260582548033806,4.064939887649169,-7.042067639121733
-11.878515441868684,10.820105414829781,7.352326022864938,-11.630872842306776
-12.735662627005743,8.760935535613818,5.4960089733464015,-12.895656679936787
-11.958478656370781,10.508379647524924,3.3846294661017504,-9.821321528632108
-8.650283273892065,14.339869923193596,2.506004375492931,-3.1423980326473804
-2.837015316995115,15.330985528122415,1.7129749882647227,4.796789543255779
4.200920439648785,9.694342724418169,-0.30532883552600937,10.91540684591917
10.302963910909117,-1.681724783622568,-3.0965884679328024,12.924327931238512
13.376369371406135,-12.793448293989167,-4.397889248181975,10.69246628170639
12.690128492834468,-16.56989401514037,-1.8913888604623748,6.316407082370979
9.63337019107908,-10.579534176983271,4.76086775880578,2.7157734429481333
6.975307550583702,0.9663564055611288,13.36756663945005,1.852852760484021
6.959184785171484,10.560242131256905,20.474265180728064,3.7748530324880973
9.762322515395784,12.44225505039746,23.247279798732304,6.7731572624129015
13.387068308406336,5.589660189247419,20.76862490976636,8.342405442702466
14.794058313822422,-5.968002526984946,14.312371770952742,6.573464328491439
11.672532979218145,-15.479106865767978,6.36157451263259,1.4023312181794436
4.2661936123783315,-18.54407773764785,-1.4063304422337992,-5.157140377363658
-3.9318837563229962,-17.475300484333665,-9.261883117850228,-10.165773961164492
-7.975049625799543,-19.03322006032576,-17.601459158166456,-11.51954906692905
-5.182308738417424,-26.06811611783522,-23.83263014651825,-9.0744663739183
2.335800331842051,-32.872250807187015,-22.988083925884787,-4.58251847394233
9.056036931827066,-31.37635587411923,-13.446069008510463,-0.7054335106294354
10.314223671365152,-21.386987439506925,-1.4763830024069748,0.40979651256896976
5.5698105130475835,-11.817921564396848,2.3801134182424257,-1.6112815629239736
-1.963896023962916,-10.94948056915341,-6.989182847880728,-5.148889355453032
-8.301173840661392,-17.246840150005397,-23.35386171764865,-7.820646044857634
-11.348502471490619,-20.73451315636345,-33.417024045854504,-8.222109833535512
-11.422585814007647,-12.52585354854946,-27.51953212781875,-6.553105731247672
-9.897475903735286,6.967049912671063,-7.530906736321591,-3.7122144003311037
-7.497006595614426,27.473699604102624,14.236285911201586,-0.1632436148948411
-3.7925971550574817,36.09926981802149,24.223067152179546,4.106264278792774
1.6168617265428822,27.715949038032303,18.17135064696599,8.779282558066049
7.520772504130836,10.492373652083975,4.593902693170224,12.768060286518576
11.121596300211099,0.23519067623823617,-2.43708570061632,14.689201413731144
10.08408468649285,6.904198370310991,4.48299048137649,13.75824253847426
4.650086079269231,25.800004971564192,19.781585720545202,10.41427798540182
-2.335202993522361,42.181967258796675,30.191147974620396,6.305351334539577
-7.434043769809925,44.26528473013773,26.355650778714892,3.477510680289268
-8.816015168266981,32.057798962957904,10.348567384872956,3.0267990821064776
-7.151032746240513,15.839575755233787,-6.316817114779893,4.181113548854105
-4.958635764797442,8.029720040143964,-11.253851126338388,4.769374248853881
-4.859421932150707,14.762667468012735,0.23117143370673343,2.8280670645467763
-7.606389890639306,31.07391417318301,21.519410940400753,-1.9964423156844284
-11.292338104525326,42.59592889795464,37.97746024307886,-8.234598596069432
-12.655229720779975,34.93430346777419,36.10124643814433,-13.411434351685338
-9.557060819317083,5.424817447564414,13.454838321721692,-15.272192777963632
-2.4828117268217667,-33.055546506217276,-18.12978569253911,-12.997639373458629
5.958875323986353,-60.91239215569044,-40.00944899337236,-7.909087809973029
12.534775802728747,-65.79309272225227,-40.01690361718373,-2.9527693828994006
14.652498110165737,-49.79716662822384,-21.107470274445358,-0.9084519331071877
11.398177983672054,-25.93521994085969,1.405606594357525,-2.509703995619621
4.502731985294651,-8.967457312552398,11.38800903430011,-5.9394284693149455
-1.8181879791118278,-6.932271817601936,3.290890042616698,-8.009117615129322
-3.1618481023852656,-16.840506895374457,-14.497747209742371,-6.113634840904995
1.8434476938580582,-27.001822510672984,-26.451782724010034,0.1323876324159952
10.227973659112418,-26.156102997366432,-22.075367675862573,8.330014613374388
16.650301380070957,-13.210839676598571,-4.311268269190674,14.304852421125736
17.070809033255948,1.5446378272370997,12.800696847483696,14.536385265314308
11.32559687468006,5.46396216338415,15.476717128676562,8.595945456998344
2.9525410587231105,-5.70945486133828,0.9387464093020126,-0.35512225855593416
-3.4666755105009344,-24.52814454839196,-21.02506930897825,-7.594228500060678
-5.623863484587024,-37.144572666522166,-35.87293896037593,-9.822447464159415
-4.910900742513676,-32.58304570953716,-34.74545506923149,-6.863249565141228
-4.577093273500222,-10.753836589279482,-20.203949028241553,-1.1904478244877028
-6.2706691165150374,15.913574122612008,-3.6878596493003597,3.89052976941992
-8.523597944670122,30.544751318222225,3.576589342812647,6.045701227549964
-8.724919795299055,25.09332694546501,-0.6454036953947803,4.799329192436332
-6.174809010073261,6.812555406035871,-8.71738888963191,1.2616909343289753
-2.7849073117930354,-9.023971108009984,-10.936705459623031,-2.9084364335907944
-1.0218813504098674,-12.461899946699779,-4.119252288755551,-6.43273961405816
-1.6947206003431274,-4.580986892659187,7.332334114950332,-8.597248664390829
-3.7218861950068867,7.797748030311344,17.406128349683417,-8.986834313327686
-5.518753622585575,19.641428567292753,23.87675757219482,-7.521072664503084
-6.367779496902393,29.534505256704676,27.926931430751807,-4.805592179172742
-6.6675034423683455,36.87836617205564,30.188014486245834,-2.002958949271872
-6.942226322764336,39.46958522283275,28.551582653412595,0.06638511874929813
-6.435814894042141,33.61764625172723,20.046759716084637,1.6825281500693297
-2.9075077322044356,16.43003472034331,4.58640181684874,3.8505355907983057
5.3309135858049475,-10.611841163642726,-13.282146621961559,7.066974988804268
16.550144938518233,-39.23371967850955,-26.536731165930284,10.472981364468733
25.148426066582516,-56.56305004668382,-29.882297812234874,12.224362544228214
25.11415549245809,-51.90085666010417,-22.062224071049197,10.827157751567306
14.859077195918667,-23.09899376581614,-4.646993942884716,6.486631667655995
-0.9359727996286947,21.98125532035295,19.940557629500603,1.4047749556057112
-14.241468915269389,68.45207090167351,47.64753712723947,-1.5264407196647736
-18.999422505252575,99.1956420006298,70.2929302912947,-0.9138630877546036
-14.760945333038325,101.0316011127886,76.5098548417586,1.955529445920991
-6.200975153480419,71.81849979413566,58.68091362073745,4.248293640884003
0.7876032585001441,23.85458749660513,20.913878165893543,4.058010134555904
3.298861868711847,-21.732802066488475,-20.377655862361138,1.7911881239515746
2.666116229906701,-47.34409716116109,-45.899126330618486,-0.6962594547664065
2.072478958566069,-48.323633766231225,-45.99979847743367,-1.9316978146191752
3.1725440027853415,-32.73809517154164,-26.429628809593684,-1.6924108172156869
5.0846881075922425,-14.339459951524782,-3.63961596044384,-0.5135372714032864
6.199167922230455,-5.349065896769512,5.947495768425721,1.093219015146676
6.13766018546961,-11.695776790803016,-4.5963884073189805,2.812676538068324
5.641034299941297,-30.437358500841235,-29.436439420761694,4.198784294203351
5.162259706075299,-50.827815814803905,-53.95446077766252,4.459686033237375
4.3285648754136075,-60.43958013792731,-63.46959744674305,2.7818168048222778
2.7890985978358835,-53.09875466980647,-51.73729515400836,-0.8842686051125386
1.0586552084072123,-32.78315207937434,-24.482917549806274,-5.2659005969219805
0.24630473359523053,-11.187710607343435,3.768601312855865,-8.319283490897925
1.0570502573671785,-1.1356883879333444,17.89721192211809,-8.83767782075432
3.116599575040554,-9.02166791815803,11.3777807829453,-7.6196014687837526
5.22299246061969,-29.965547176437305,-9.16428757808755,-6.696846751427926
6.37632806347996,-50.227097590917346,-28.472013351077294,-7.156763777927027
6.707859477843922,-57.219937325569845,-34.233644249205405,-7.869894414313687
7.172654876339614,-48.9205407185204,-26.299837596581487,-6.576775401543887
7.957559287086729,-33.2409074720053,-15.106885453688562,-2.2457449872490134
7.391255454374731,-18.767607944440165,-11.229274457136507,3.611480120652702
3.2199408006441628,-7.831166430923719,-16.363764870525632,7.819322055819039
-4.547576122442222,1.8217026586092864,-23.16136673491748,7.852870884320444
-12.435282146037991,12.010709059313992,-21.92378589044781,3.828896888759276
-15.829482588875381,23.014902506244486,-7.356028979513777,-1.3725012972209643
-12.824954110156414,35.359314513520445,18.632680551487873,-4.1621149534012725
-5.793937968607385,49.03307933269686,47.72918580359095,-2.9979036100760013
0.6559654219017156,60.2516143414965,68.33621340711848,0.4895500043252612
3.1088335363096937,61.52308537566846,70.55329357558172,3.0010999680692345
1.1929114354259842,47.31500827020719,51.64457167292903,2.25636127202408
-3.0286010794745564,20.262165405611857,18.734521542125275,-1.474737838771692
-6.948878501334603,-8.273229932772376,-13.900159275968786,-5.869895235710654
-8.98110127323743,-24.157308102245846,-31.970184548548673,-8.18804050220874
-8.93833117866564,-19.061123585841198,-28.580667987152545,-6.902832318015389
-7.456181982312207,3.5943335380139816,-7.605039095923565,-2.759299777884554
-5.401063599336107,29.918374092010826,18.92302596228923,1.3169635060882134
-3.82566635627048,44.90050631746405,38.05270727059403,1.9977385884500587
-3.8690695372243153,43.39433874879105,43.328406123298635,-1.7248776046315222
-5.829406384110194,32.647222801781766,37.13924429836504,-7.170965520616944
-8.186010172497149,23.66102183710656,26.498549882539304,-9.702021278020315
-8.355979226217586,20.679675726781234,16.62419749218895,-6.470697065480701
-5.19170548850948,19.676878785890324,8.411527991821213,1.034944417595491
-0.5626277893680847,15.48417324466984,1.0631793748032847,7.942761410300127
2.1604847393343913,7.971865412564651,-4.537370944043913,9.689816922978617
1.3082578102242652,1.2284128733681763,-6.023796938641354,5.460824976416791
-1.6652590730763706,-1.3350215036031743,-2.7266309241626185,-1.3413460937677888
-3.848067269771367,-0.26554782216069717,2.250361197380728,-5.932649812714354
-3.57158495841147,0.6459290131483205,3.9299466088523323,-5.947399593065682
-1.5678777827147152,-1.8107390069739084,0.07446175514817369,-2.98225050482085
0.0025789185936961633,-6.477464004459742,-6.099024192679272,-0.6224872976659668
-0.4172714845330142,-8.560909013641542,-8.823759046917477,-0.9226660410333085
-2.150164428443844,-5.7656547583072575,-6.299080642437355,-2.6632945994482955
-2.4050424288550736,-3.108129321158234,-3.635128672314573,-2.7958285914206855
1.4120242687962272,-8.802462169220384,-7.790801972879852,0.5722739584917129
8.880554040995587,-24.27895719079851,-19.400742368600007,6.426278778520842
16.190388595656664,-40.52560018435413,-31.014997452771393,11.63697178711471
19.11709063796341,-46.38434775536471,-34.32356693960549,13.399462394116643
16.59566777434738,-39.65594750605028,-28.502167427045816,11.312242014672078
11.380505990530182,-28.604671198424242,-20.689976875757058,7.524490157243056
7.45983700700677,-23.206839559717732,-18.481246311374917,4.882513789647084
7.004659164287726,-26.075101938282295,-22.30507858544891,4.654067589803802
9.351921119891799,-31.051593391540987,-24.888330325841807,5.866086190692251
12.19238678255864,-29.175063974450083,-18.11154162664458,6.797046047454703
13.634716349803798,-16.831803247983213,-1.2405579098823012,6.945216922065253
13.659320233134826,-0.17437039915132824,16.842722831102638,7.319786882294314
13.903775986149377,8.524346738103882,24.18171875050959,8.899920122501623
15.860521710703813,1.281767863422402,16.04402952310007,11.228829210687923
19.130917070523665,-17.300273327806245,-0.36032803079080766,12.760203241644074
21.538870244428317,-32.91772667430746,-11.7133433892758,12.358896981875006
20.93137312113104,-33.91706178284703,-10.067347785504237,10.175298456892934
16.721608907342446,-21.115055767874562,0.5051490934084186,7.170336693789263
9.945100472765297,-6.022593435791843,7.918675159873618,4.1243584615753015
2.4733883991415437,-0.6750454954936652,2.610501396104203,1.1755869935685985
-3.6881355564363822,-8.86205257148178,-14.711507615053339,-1.9018852722436066
-7.1554903384356345,-24.284487467444603,-33.77623872292182,-5.134543828468499
-8.110740266852511,-34.820078774294316,-42.192981816969265,-8.08322258031787
-8.443269772893876,-30.147650238954043,-33.65050652585859,-10.210599253471424
-10.298295163099793,-9.063625878644842,-11.540404273742691,-11.576298905711173
-14.199271044265055,18.997886536643378,13.813420701345963,-12.956922494745925
-18.77354034355979,40.95717219166457,31.913975923951973,-14.936036646137689
-22.304957974790597,49.93891398699319,37.73235359063076,-16.891408613794468
-24.2619195187224,48.49599839923151,32.4747036574411,-17.311651195029654
-25.310285461024776,43.20892845606921,20.548584524282926,-15.413597623806789
-26.22822421020731,38.213852006750265,6.910866645432342,-12.28554058811728
-27.01052604762152,34.20599169639476,-3.4167318962489497,-10.154102017873145
-26.849668494938687,31.02224013414874,-5.9751081523824565,-10.501092527817738
-24.932088349648698,28.948703602423027,0.6608068035947883,-12.937073842688672
-21.491028010478864,28.35958891658825,13.040098827091535,-15.701110285896888
-18.046199862263453,29.59836718772745,24.709913023105653,-17.004038135536536
-16.06947625836345,32.46464817830585,30.544735108352953,-16.020901757498745
-15.098169919426537,34.581038772994624,29.46826921601886,-13.04146707814562
-12.67137570843149,31.47447632266977,23.811512641850186,-9.008024581226241
-6.877375154879682,20.390056532234908,16.795312766879317,-4.968659117388511
0.9992528801854875,3.818782645804468,10.097228917516118,-1.863345123639702
6.962065731599371,-12.341097446916104,2.8618371795312405,-0.5142031269463652
7.8435297171741984,-23.91216613545658,-6.773453432108414,-1.2436907756405495
4.350745555102202,-30.355137199706093,-18.40358877687198,-3.102163430206412
0.582368339056878,-32.364674855141224,-27.854474154299986,-3.810445134460217
0.6573197378398002,-30.25350406923449,-30.055991875303704,-1.310797827040319
5.667500839583421,-25.445641297637035,-23.733792913673785,4.184421907159986
13.363459987169199,-21.209083497441082,-12.601155915394477,10.01142370954477
20.341566771373273,-19.96052205953118,-1.7852349330655208,13.378658100264213
24.62523073152194,-20.694079025658848,6.0947577639387145,13.90373544488462
26.564152565157695,-20.57355842601654,11.007070038530085,13.700862477082598
27.590935561718712,-18.721901880070806,12.803773986538118,15.076447126662202
28.33435389285427,-17.352155613708767,9.851714080322818,18.329484102652422
28.099322072559243,-19.270220229022883,0.8175078559159787,21.67068475397074
26.04887774131951,-24.743760781124333,-12.469803656714713,22.97982000093796
22.417080706249468,-30.180983600414958,-24.28597385980736,21.649373383348433
18.290377114913394,-29.30509882475417,-27.684710239158086,19.03575751021542
14.525851992042057,-17.059143588806375,-19.066042242219822,17.261457705253488
11.296118665749425,5.330436291987888,-1.401048225592203,17.37049344988694
8.490306043214874,28.855078099838714,16.728092986402437,18.4132378570594
6.015510144000459,42.219193917929914,26.396670996069236,18.28691212253355
3.6619930678747608,40.51465769303457,24.452356027401407,15.493642742570987
1.15616541086109,28.5964436508986,15.563835220878289,10.12467516037967
-1.4491601109730616,15.854958506432512,8.1117514536979,3.3927512142932086
-3.769442862727945,8.248287043687439,7.131191908812402,-3.3652500873322975
-5.678356417090907,5.218083623511804,10.309924580333702,-9.111683887856222
-7.621914909341133,2.671436792092511,10.470705617554906,-13.023523482611695
-10.097836772608375,-2.131429732089043,2.5017139576070204,-14.625505611081488
-13.001092532275111,-7.660922057259788,-11.06006153228183,-14.222243341910149
-15.652118192811297,-9.091302076112349,-21.01894749701123,-12.987023981134838
-17.243978099491944,-3.245127294983827,-19.225307751815706,-12.366852180314408
-17.115651189315574,6.341601949345571,-6.523670564705041,-13.223408265017689
-15.014189650546664,10.613376253542103,7.033641518586752,-15.325889752043045
-11.582837064879298,3.0901029424172926,10.422053528993619,-17.474624180769506
-8.37627892272864,-13.825465433967357,0.0510133901932509,-18.209570712551155
-6.732250443124802,-32.0648069117551,-19.495164646517996,-16.760497078993236
-6.404713785411938,-46.271519579640334,-40.81515161079675,-13.558414014259169
-5.631602224238618,-56.56230658390311,-57.80687314158134,-9.784300392145559
-2.751397179229963,-63.593590075153124,-65.74053458932343,-6.336114904792443
2.3368895046364933,-64.43967910282863,-60.982984799416435,-3.2734567228821967
8.149850117506126,-55.02447585540303,-43.00235061095001,-0.23097476032912398
12.557755057584103,-34.76282501987745,-16.08587974484179,2.8554920074394037
13.710067220034716,-7.403421269311325,12.177762685382447,5.554205996672889
10.802674883504213,21.084666372895214,34.38415634719129,7.269126585342705
4.720317432457268,44.031211945985135,45.81162776615561,7.590449495729737
-2.094000860977431,55.45597564702511,45.25815425464781,6.522277764534604
-6.945360393197959,52.98135138984188,34.97555937892408,4.684645061237192
-8.404892511980945,39.80399277183564,19.639253868350366,3.213529381650329
-6.700556208033268,22.546549298981688,4.4078350787351095,3.0438755257054964
-3.0429313644942932,7.224235412867629,-6.466349723470787,4.0559140174666
0.968257976159647,-1.9523018917190984,-9.575032672174716,5.041086115760001
3.4952248702325064,-1.42418648387335,-2.4987979751254783,4.6414971845211594
2.9268529726288293,10.469362886198368,13.979899540323808,2.3313745877537837
-1.0832992498141523,29.502499977083662,33.37136428352572,-1.3883425689092155
-6.991468842419109,44.888965533878235,45.00732452241781,-5.4481214526323
-12.054618509111302,45.678880918721504,40.73189654307905,-8.767989538115241
-13.935694204666573,29.391156652339777,21.793018340413223,-10.687396771792123
-12.071136021546359,4.819798764933281,-0.6804660025852866,-11.185068776282009
-7.99215578125604,-13.430945388420716,-12.975436335348945,-10.657140239296922
-4.35882999076946,-14.451237303292185,-8.428574620093476,-9.322274079928828
-3.046062500874371,1.4464004043980287,7.888151248774817,-6.930904123606563
-3.5497650231459783,21.89882109136104,22.821385532631705,-3.279127725015155
-3.3425805130972117,30.33529405601584,24.644997161282543,1.0059008999024917
-0.27526100542640314,18.463703900096892,11.729789668842354,4.433149532135912
5.19019382711429,-6.729338968464599,-6.387575855635806,5.56827755024408
10.238798981866871,-28.797752681599366,-16.901897735548154,4.053191610662934
12.14324888808715,-35.529830472654886,-14.122354593190323,0.8725192841210376
10.388429071753245,-27.450630585565293,-3.1732314422944063,-2.2005210277253147
6.761794871131172,-14.464378652641804,5.750566305708887,-3.5324379920004425
3.9065914115451963,-6.418267320162141,6.273991030593321,-2.446886138906234
